%LabVIEW Measurement        
%Writer_Version        2
%Reader_Version        2
%Separator        Tab
%Decimal_Separator        .
%Multi_Headings        No
%X_Columns        No
%Time_Pref        Absolute
%Operator        mechlab
%Description        Data file
%Date        2023/02/10
%Time        13:22:18.2259998321533203125
%***End_of_Header***        
%        
%Channels        6                                                
%Samples        1        1        1        1        1        1        
%Date        2023/02/10        2023/02/10        2023/02/10        2023/02/10        2023/02/10        2023/02/10        
%Time        13:22:18.2259998321533203125        13:22:18.3299999237060546875        13:22:18.4380002021789550781        13:22:18.5460000038146972656        13:22:18.6550002098083496094        13:22:18.7630000114440917969        
%X_Dimension        Time        Time        Time        Time        Time        Time        
%X0        0.0000000000000000E+0        0.0000000000000000E+0        0.0000000000000000E+0        0.0000000000000000E+0        0.0000000000000000E+0        0.0000000000000000E+0        
%Delta_X        1.000000        1.000000        1.000000        1.000000        1.000000        1.000000        
%***End_of_Header***                                                        
%X_Value        Untitled        Untitled 1        Untitled 2        Untitled 3        Untitled 4        Untitled 5        Comment
        0.000000        171.689430        9.341894        12.210526        -2.211396E-6        4.780760E-6
        0.542000        179.017172        9.321590        12.208732        -1.885558E-6        4.558491E-6
        1.085000        176.170447        9.318038        12.207521        -1.404736E-6        4.693839E-6
        1.629000        177.381271        9.341839        12.211223        5.580687E-6        1.995562E-6
        2.172000        315.581102        9.331554        12.209562        2.101878E-5        -1.835148E-6
        2.714000        443.532400        9.334761        12.211682        3.356976E-5        -5.141826E-6
        3.256000        560.322215        9.342374        12.209757        4.412070E-5        -8.729105E-6
        3.803000        662.224687        9.349149        12.211109        5.453396E-5        -1.262430E-5
        4.348000        750.806479        9.358079        12.207511        6.318011E-5        -1.529765E-5
        4.895000        825.001681        9.363904        12.208640        7.036664E-5        -1.653188E-5
        5.437000        896.375920        9.349693        12.208711        7.749346E-5        -1.861913E-5
        5.982000        945.275839        9.364755        12.211099        8.327898E-5        -1.916671E-5
        6.523000        1005.973247        9.367460        12.209805        8.844450E-5        -2.077095E-5
        7.068000        1058.006498        9.373304        12.212497        9.327319E-5        -2.173075E-5
        7.613000        1113.628748        9.374538        12.211960        9.743304E-5        -2.359822E-5
        8.160000        1138.751746        9.388343        12.209998        0.000102        -2.511552E-5
        8.704000        1191.483798        9.390060        12.211838        0.000107        -2.716177E-5
        9.251000        1230.003152        9.385632        12.208900        0.000111        -2.912605E-5
        9.794000        1269.752653        9.408222        12.211787        0.000116        -2.840466E-5
        10.334000        1309.012672        9.399482        12.211209        0.000119        -2.998031E-5
        10.876000        1343.770743        9.404863        12.212578        0.000123        -3.103074E-5
        11.419000        1374.922102        9.414862        12.211932        0.000125        -3.208116E-5
        11.965000        1411.237177        9.414447        12.211903        0.000129        -3.187753E-5
        12.511000        1448.563420        9.420549        12.211179        0.000133        -3.510579E-5
        13.058000        1476.573398        9.420246        12.211540        0.000137        -3.668638E-5
        13.604000        1509.370320        9.432989        12.213101        0.000140        -3.780881E-5
        14.149000        1544.031783        9.438824        12.212978        0.000143        -3.802113E-5
        14.697000        1582.890879        9.438634        12.211236        0.000146        -3.868539E-5
        15.246000        1612.240493        9.443745        12.213312        0.000149        -4.155601E-5
        15.788000        1632.985525        9.434470        12.213737        0.000154        -4.299877E-5
        16.330000        1661.303040        9.463498        12.213596        0.000158        -4.527836E-5
        16.875000        1700.105782        9.458664        12.215186        0.000161        -4.533671E-5
        17.419000        1722.866707        9.457161        12.213975        0.000163        -4.583584E-5
        17.962000        1759.461948        9.457724        12.212904        0.000167        -4.557386E-5
        18.505000        1794.300528        9.463691        12.213579        0.000170        -4.601836E-5
        19.050000        1832.573534        9.474209        12.213672        0.000173        -4.720781E-5
        19.596000        1853.548816        9.492400        12.215923        0.000176        -4.779509E-5
        20.140000        1880.067807        9.483644        12.215964        0.000179        -4.822964E-5
        20.688000        1922.274383        9.492822        12.212032        0.000183        -4.918319E-5
        21.235000        1957.148387        9.495614        12.212779        0.000186        -4.931977E-5
        21.782000        1986.567239        9.506721        12.214318        0.000190        -5.062592E-5
        22.326000        2016.488454        9.491122        12.213709        0.000193        -5.225985E-5
        22.873000        2047.246942        9.502808        12.214884        0.000196        -5.376465E-5
        23.416000        2071.521400        9.512813        12.213217        0.000200        -5.349150E-5
        23.964000        2114.257714        9.499729        12.214897        0.000203        -5.477158E-5
        24.509000        2146.209315        9.515055        12.214571        0.000206        -5.568165E-5
        25.054000        2177.549064        9.525231        12.213539        0.000208        -5.694434E-5
        25.599000        2207.447739        9.539320        12.215913        0.000213        -5.755147E-5
        26.141000        2243.117152        9.529552        12.215856        0.000216        -5.766941E-5
        26.687000        2281.483549        9.545036        12.214736        0.000220        -5.921393E-5
        27.232000        2310.573934        9.540231        12.213358        0.000224        -6.073982E-5
        27.776000        2342.860446        9.558432        12.214688        0.000228        -6.294607E-5
        28.320000        2373.786391        9.546082        12.215944        0.000231        -6.497353E-5
        28.864000        2403.272870        9.565478        12.215085        0.000236        -6.630944E-5
        29.407000        2439.380243        9.562934        12.214864        0.000239        -6.694139E-5
        29.954000        2476.975385        9.568228        12.213288        0.000243        -6.875033E-5
        30.498000        2507.421508        9.581808        12.213082        0.000247        -6.934503E-5
        31.045000        2534.632862        9.576372        12.214253        0.000250        -6.878881E-5
        31.592000        2576.773427        9.581570        12.216031        0.000252        -6.781048E-5
        32.136000        2612.455725        9.581502        12.213838        0.000257        -6.953871E-5
        32.683000        2648.574370        9.581708        12.215772        0.000260        -7.038792E-5
        33.225000        2678.811176        9.594902        12.214250        0.000263        -7.054435E-5
        33.771000        2711.234552        9.588381        12.213960        0.000267        -7.240045E-5
        34.318000        2754.165698        9.592915        12.214891        0.000270        -7.348183E-5
        34.862000        2787.297535        9.592683        12.215756        0.000274        -7.510203E-5
        35.404000        2825.395043        9.611067        12.215573        0.000279        -7.748575E-5
        35.952000        2851.954292        9.605938        12.214650        0.000283        -7.954916E-5
        36.492000        2895.294414        9.621917        12.215143        0.000287        -7.991292E-5
        37.037000        2927.384493        9.627346        12.217520        0.000289        -7.917670E-5
        37.583000        2957.824178        9.634379        12.216973        0.000293        -7.999611E-5
        38.127000        3004.519832        9.631123        12.216933        0.000297        -8.109733E-5
        38.675000        3044.018163        9.651711        12.216881        0.000300        -8.276840E-5
        39.222000        3078.880903        9.637670        12.214576        0.000304        -8.330597E-5
        39.767000        3103.871878        9.639190        12.214633        0.000308        -8.531970E-5
        40.312000        3135.561034        9.647521        12.214675        0.000313        -8.764254E-5
        40.856000        3185.336886        9.657098        12.215239        0.000317        -8.870029E-5
        41.399000        3232.491432        9.659462        12.215303        0.000321        -8.977543E-5
        41.946000        3258.704504        9.686235        12.216197        0.000324        -8.982633E-5
        42.489000        3282.578043        9.667612        12.215882        0.000329        -9.225343E-5
        43.033000        3329.173872        9.670044        12.214676        0.000333        -9.373949E-5
        43.578000        3371.501222        9.693613        12.216458        0.000336        -9.384626E-5
        44.120000        3397.994458        9.679930        12.213960        0.000340        -9.493379E-5
        44.665000        3442.606597        9.681988        12.213487        0.000344        -9.594808E-5
        45.213000        3484.396160        9.703583        12.214243        0.000348        -9.734101E-5
        45.759000        3510.282375        9.713266        12.217584        0.000352        -9.813928E-5
        46.304000        3554.937989        9.693587        12.216336        0.000358        -9.990464E-5
        46.848000        3599.271575        9.701351        12.216116        0.000362        -0.000101
        47.394000        3632.342234        9.717176        12.213818        0.000365        -0.000101
        47.938000        3680.424227        9.706687        12.217654        0.000369        -0.000103
        48.478000        3721.212286        9.716548        12.217109        0.000374        -0.000104
        49.019000        3755.717581        9.706339        12.217636        0.000378        -0.000105
        49.568000        3791.298450        9.721001        12.217065        0.000382        -0.000107
        50.109000        3831.951259        9.731393        12.217368        0.000386        -0.000107
        50.655000        3870.306400        9.718779        12.218792        0.000391        -0.000108
        51.199000        3911.195901        9.735367        12.215238        0.000394        -0.000109
        51.747000        3950.473652        9.754872        12.217425        0.000398        -0.000110
        52.294000        3996.113067        9.751053        12.216072        0.000403        -0.000111
        52.841000        4036.468003        9.750135        12.215482        0.000408        -0.000113
        53.386000        4078.006392        9.771173        12.218010        0.000412        -0.000113
        53.930000        4117.752696        9.768101        12.216384        0.000416        -0.000114
        54.474000        4155.293109        9.766858        12.215801        0.000420        -0.000116
        55.021000        4199.591280        9.777118        12.214080        0.000425        -0.000116
        55.567000        4232.642624        9.776435        12.216643        0.000430        -0.000119
        56.113000        4278.422125        9.778129        12.217609        0.000434        -0.000120
        56.662000        4321.071514        9.783713        12.216306        0.000440        -0.000122
        57.204000        4367.144061        9.792923        12.216903        0.000444        -0.000124
        57.749000        4403.341620        9.800526        12.217540        0.000450        -0.000125
        58.293000        4452.756820        9.802806        12.217767        0.000454        -0.000126
        58.838000        4479.130916        9.811511        12.216954        0.000458        -0.000127
        59.382000        4527.183938        9.814773        12.218624        0.000463        -0.000129
        59.927000        4571.313050        9.818141        12.216680        0.000467        -0.000130
        60.472000        4607.737641        9.838902        12.216172        0.000472        -0.000132
        61.015000        4652.789365        9.835837        12.217465        0.000477        -0.000133
        61.561000        4694.744789        9.825989        12.216254        0.000482        -0.000134
        62.104000        4746.270888        9.852859        12.216855        0.000487        -0.000136
        62.651000        4788.168349        9.834069        12.217762        0.000492        -0.000137
        63.196000        4826.963069        9.847310        12.216860        0.000497        -0.000137
        63.738000        4872.671734        9.855564        12.215845        0.000502        -0.000139
        64.278000        4918.914965        9.851590        12.215360        0.000506        -0.000140
        64.823000        4962.860527        9.846831        12.215095        0.000511        -0.000141
        65.366000        4999.027501        9.863840        12.217403        0.000518        -0.000145
        65.909000        5038.863986        9.861074        12.215905        0.000519        -0.000145
        66.452000        5016.241513        9.875072        12.215587        0.000516        -0.000144
        66.998000        5004.046309        9.867566        12.215690        0.000518        -0.000143
        67.544000        5025.203555        9.866178        12.215220        0.000518        -0.000143
        68.087000        5027.564021        9.853880        12.217653        0.000520        -0.000143
        68.630000        5046.896977        9.868580        12.217216        0.000522        -0.000143
        69.171000        5055.068440        9.861592        12.217249        0.000524        -0.000144
        69.716000        5088.913593        9.866072        12.214900        0.000522        -0.000143
        70.254000        5017.065904        9.885716        12.213729        0.000513        -0.000141
        70.801000        4932.615650        9.881191        12.213363        0.000504        -0.000138
        71.341000        4848.358614        9.883142        12.214554        0.000494        -0.000135
        71.884000        4769.266911        9.875076        12.215932        0.000487        -0.000133
        72.428000        4699.462499        9.871237        12.214343        0.000480        -0.000132
        72.972000        4641.660075        9.871653        12.212996        0.000473        -0.000130
        73.515000        4562.719731        9.868078        12.213383        0.000466        -0.000128
        74.058000        4494.520635        9.853748        12.213938        0.000458        -0.000125
        74.604000        4421.755182        9.859692        12.212605        0.000450        -0.000123
        75.150000        4340.655647        9.873253        12.214240        0.000443        -0.000121
        75.698000        4294.166073        9.849722        12.215761        0.000435        -0.000119
        76.242000        4207.986550        9.857789        12.214987        0.000428        -0.000117
        76.785000        4136.166256        9.846753        12.215348        0.000421        -0.000115
        77.330000        4075.967955        9.852801        12.211612        0.000415        -0.000115
        77.874000        4010.480344        9.848083        12.214457        0.000408        -0.000115
        78.417000        3931.712302        9.845713        12.214438        0.000402        -0.000112
        78.963000        3870.705714        9.856388        12.214301        0.000393        -0.000109
        79.510000        3811.608753        9.849252        12.215474        0.000386        -0.000107
        80.056000        3733.568498        9.834787        12.215935        0.000379        -0.000105
        80.601000        3668.241909        9.845704        12.213203        0.000372        -0.000101
        81.145000        3604.050469        9.850302        12.213979        0.000364        -9.875877E-5
        81.692000        3541.535186        9.839195        12.214800        0.000357        -9.538197E-5
        82.232000        3488.316850        9.837872        12.213721        0.000350        -9.373825E-5
        82.778000        3420.257858        9.832430        12.212938        0.000343        -9.263085E-5
        83.320000        3355.114830        9.829451        12.213580        0.000336        -9.000758E-5
        83.866000        3275.429023        9.828134        12.215013        0.000329        -8.720181E-5
        84.413000        3207.468254        9.832372        12.214289        0.000322        -8.512975E-5
        84.957000        3156.795553        9.820106        12.214522        0.000315        -8.244437E-5
        85.505000        3084.224956        9.829525        12.214182        0.000309        -8.246299E-5
        86.054000        3012.366042        9.814280        12.215090        0.000303        -8.313961E-5
        86.599000        2950.679990        9.825960        12.213744        0.000297        -8.136550E-5
        87.144000        2889.900447        9.825657        12.214798        0.000290        -7.708226E-5
        87.689000        2826.390109        9.818792        12.215133        0.000283        -7.483137E-5
        88.231000        2763.262985        9.803119        12.215381        0.000276        -7.475067E-5
        88.775000        2710.762781        9.811195        12.214294        0.000271        -7.340858E-5
        89.317000        2639.734705        9.801599        12.213689        0.000264        -7.147303E-5
        89.861000        2578.703984        9.804339        12.213753        0.000258        -7.117506E-5
        90.403000        2518.091901        9.810110        12.213749        0.000253        -7.022900E-5
        90.948000        2461.068819        9.809900        12.215043        0.000247        -6.858024E-5
        91.493000        2400.197504        9.800040        12.215155        0.000241        -6.687932E-5
        92.038000        2336.460142        9.812915        12.215054        0.000234        -6.462838E-5
        92.584000        2287.073952        9.800616        12.213529        0.000234        -6.591711E-5
        93.131000        2322.302188        9.796288        12.215010        0.000241        -6.612942E-5
        93.677000        2403.139229        9.800050        12.213474        0.000247        -6.713880E-5
        94.220000        2472.243185        9.806175        12.215376        0.000254        -6.871308E-5
        94.766000        2534.665064        9.805047        12.213199        0.000261        -6.985282E-5
        95.311000        2600.503660        9.811366        12.213294        0.000268        -7.259538E-5
        95.858000        2718.695938        9.816051        12.215063        0.000287        -7.984961E-5
        96.402000        2888.615556        9.818022        12.214175        0.000306        -8.478585E-5
        96.949000        3056.897669        9.815333        12.215836        0.000322        -8.798395E-5
        97.495000        3223.617953        9.831641        12.214477        0.000340        -9.365259E-5
        98.039000        3383.730231        9.832201        12.214632        0.000358        -9.763896E-5
        98.587000        3552.224903        9.843169        12.213816        0.000375        -0.000101
        99.131000        3719.537741        9.846898        12.211999        0.000392        -0.000105
        99.679000        3888.095224        9.846055        12.215816        0.000410        -0.000111
        100.224000        4045.322162        9.841121        12.213533        0.000428        -0.000117
        100.771000        4217.471884        9.861332        12.215166        0.000444        -0.000119
        101.315000        4368.409631        9.859209        12.215440        0.000461        -0.000125
        101.861000        4532.275201        9.854205        12.214487        0.000478        -0.000131
        102.401000        4689.368530        9.868790        12.215484        0.000495        -0.000135
        102.945000        4842.713462        9.868033        12.214941        0.000509        -0.000140
        103.490000        4961.862240        9.881945        12.214172        0.000523        -0.000143
        104.034000        5069.086323        9.876219        12.211975        0.000532        -0.000145
        104.577000        5157.549053        9.883242        12.213503        0.000540        -0.000146
        105.123000        5232.021274        9.901463        12.214511        0.000546        -0.000147
        105.668000        5290.330906        9.897167        12.214015        0.000552        -0.000150
        106.212000        5338.685040        9.908969        12.213913        0.000557        -0.000152
        106.754000        5384.762435        9.916402        12.214694        0.000563        -0.000154
        107.298000        5440.231783        9.917120        12.214798        0.000569        -0.000154
        107.843000        5486.508838        9.919393        12.214945        0.000575        -0.000156
        108.387000        5545.356263        9.908592        12.213771        0.000580        -0.000158
        108.936000        5592.650929        9.931121        12.215783        0.000587        -0.000159
        109.483000        5636.134393        9.926607        12.214838        0.000593        -0.000164
        110.027000        5689.589460        9.924156        12.214232        0.000599        -0.000165
        110.578000        5743.344014        9.924977        12.214154        0.000605        -0.000166
        111.124000        5784.302780        9.951016        12.214176        0.000610        -0.000168
        111.670000        5829.650791        9.940766        12.215081        0.000617        -0.000171
        112.215000        5870.432442        9.950504        12.217433        0.000624        -0.000173
        112.759000        5934.284196        9.959598        12.216492        0.000630        -0.000175
        113.300000        5976.167186        9.955885        12.214154        0.000635        -0.000176
        113.846000        6025.191153        9.953773        12.214803        0.000640        -0.000177
        114.390000        6069.634269        9.967031        12.213517        0.000645        -0.000178
        114.930000        6114.462210        9.986468        12.214731        0.000650        -0.000178
        115.475000        6152.421290        9.978179        12.213979        0.000656        -0.000178
        116.020000        6209.714946        9.976788        12.213755        0.000661        -0.000180
        116.567000        6257.904865        9.980569        12.215495        0.000668        -0.000182
        117.111000        6300.258023        9.991746        12.217289        0.000673        -0.000183
        117.653000        6357.210334        9.987512        12.216105        0.000678        -0.000184
        118.198000        6387.901239        9.988729        12.215635        0.000683        -0.000186
        118.745000        6452.630535        9.995724        12.214391        0.000690        -0.000189
        119.288000        6484.298798        10.009113        12.216397        0.000697        -0.000191
        119.834000        6552.903708        10.011181        12.216013        0.000704        -0.000195
        120.379000        6600.166194        10.005169        12.214864        0.000711        -0.000197
        120.922000        6638.646969        10.020558        12.216773        0.000718        -0.000198
        121.468000        6680.633022        10.037848        12.215966        0.000723        -0.000199
        122.010000        6734.076845        10.029675        12.215611        0.000730        -0.000201
        122.558000        6790.389942        10.027440        12.216959        0.000736        -0.000201
        123.102000        6827.584217        10.035871        12.216281        0.000741        -0.000204
        123.650000        6870.508987        10.040978        12.215103        0.000748        -0.000206
        124.197000        6927.549872        10.050787        12.214366        0.000756        -0.000208
        124.745000        6969.329834        10.061024        12.217089        0.000762        -0.000209
        125.287000        7028.462296        10.061366        12.217746        0.000769        -0.000211
        125.830000        7063.172127        10.061707        12.217651        0.000774        -0.000211
        126.375000        7116.385710        10.075432        12.214236        0.000780        -0.000211
        126.919000        7175.130133        10.086957        12.218841        0.000786        -0.000212
        127.464000        7223.009320        10.087724        12.217583        0.000793        -0.000214
        128.006000        7261.512648        10.079657        12.218742        0.000799        -0.000217
        128.551000        7308.681764        10.087402        12.218131        0.000807        -0.000219
        129.094000        7360.621732        10.095526        12.218878        0.000814        -0.000219
        129.638000        7401.794680        10.096325        12.215609        0.000820        -0.000221
        130.188000        7461.017326        10.097320        12.217019        0.000827        -0.000223
        130.734000        7515.424036        10.087531        12.219414        0.000833        -0.000225
        131.280000        7567.708581        10.108765        12.217300        0.000842        -0.000227
        131.827000        7604.274916        10.108594        12.218347        0.000848        -0.000228
        132.372000        7662.649023        10.117302        12.217399        0.000857        -0.000231
        132.916000        7710.497629        10.122738        12.216534        0.000863        -0.000233
        133.458000        7742.421927        10.125436        12.218202        0.000870        -0.000235
        134.003000        7803.145236        10.130750        12.217605        0.000876        -0.000236
        134.548000        7855.613346        10.139090        12.218660        0.000884        -0.000238
        135.096000        7897.821629        10.149276        12.218961        0.000891        -0.000239
        135.644000        7959.314592        10.148432        12.216593        0.000898        -0.000241
        136.189000        8007.564133        10.151489        12.216431        0.000906        -0.000244
        136.735000        8054.794454        10.154223        12.219528        0.000914        -0.000246
        137.285000        8099.512955        10.161304        12.219406        0.000921        -0.000249
        137.831000        8146.822176        10.162035        12.217823        0.000929        -0.000250
        138.377000        8194.000977        10.155485        12.219345        0.000935        -0.000252
        138.918000        8249.478458        10.164325        12.218572        0.000943        -0.000253
        139.471000        8294.251708        10.181920        12.220548        0.000952        -0.000255
        140.018000        8350.904597        10.180593        12.221322        0.000961        -0.000257
        140.563000        8392.240194        10.176307        12.221395        0.000968        -0.000260
        141.105000        8452.343623        10.202507        12.219562        0.000978        -0.000262
        141.654000        8495.910882        10.190660        12.222196        0.000987        -0.000263
        142.198000        8549.623656        10.195574        12.221134        0.000993        -0.000266
        142.746000        8606.497144        10.199300        12.220844        0.001003        -0.000268
        143.289000        8645.299992        10.208729        12.221415        0.001011        -0.000269
        143.834000        8695.645961        10.216483        12.221036        0.001019        -0.000271
        144.380000        8748.120542        10.212539        12.221986        0.001027        -0.000273
        144.924000        8789.633266        10.227857        12.219522        0.001036        -0.000275
        145.469000        8840.510587        10.227391        12.220501        0.001045        -0.000277
        146.010000        8896.136224        10.222109        12.221069        0.001055        -0.000280
        146.556000        8951.367378        10.239344        12.220302        0.001064        -0.000283
        147.099000        8998.673406        10.249176        12.223576        0.001072        -0.000286
        147.648000        9043.544898        10.246152        12.220111        0.001082        -0.000289
        148.194000        9084.972293        10.259416        12.220034        0.001090        -0.000289
        148.740000        9142.180711        10.259436        12.220793        0.001099        -0.000291
        149.286000        9189.802334        10.264652        12.221956        0.001108        -0.000294
        149.829000        9240.922801        10.266720        12.221426        0.001118        -0.000296
        150.376000        9290.908119        10.271869        12.220325        0.001128        -0.000299
        150.920000        9344.656346        10.270713        12.222108        0.001137        -0.000301
        151.461000        9384.975970        10.278619        12.220279        0.001149        -0.000305
        152.003000        9440.579087        10.285758        12.220959        0.001158        -0.000307
        152.550000        9487.154126        10.280957        12.220328        0.001168        -0.000309
        153.092000        9538.187656        10.295049        12.220983        0.001178        -0.000311
        153.638000        9584.757868        10.300008        12.221307        0.001189        -0.000315
        154.183000        9630.287927        10.307943        12.221447        0.001201        -0.000320
        154.729000        9679.220224        10.297216        12.219560        0.001211        -0.000325
        155.274000        9735.469021        10.311482        12.220327        0.001222        -0.000327
        155.820000        9780.507992        10.319700        12.221334        0.001232        -0.000330
        156.368000        9831.076202        10.320386        12.222037        0.001243        -0.000333
        156.912000        9880.375619        10.322167        12.221529        0.001254        -0.000336
        157.458000        9952.925533        10.331055        12.221532        0.001267        -0.000338
        158.001000        9984.382938        10.331699        12.220643        0.001276        -0.000338
        158.546000        10035.247422        10.344103        12.221635        0.001286        -0.000340
        159.090000        10075.895537        10.339556        12.222663        0.001299        -0.000345
        159.631000        10122.195264        10.351610        12.219906        0.001311        -0.000350
        160.176000        10172.866536        10.332166        12.221378        0.001323        -0.000352
        160.718000        10216.187497        10.356955        12.221371        0.001334        -0.000355
        161.262000        10264.440335        10.361010        12.222070        0.001346        -0.000356
        161.805000        10313.511129        10.366925        12.223340        0.001357        -0.000358
        162.351000        10366.755421        10.377768        12.222118        0.001370        -0.000362
        162.893000        10418.357368        10.378808        12.223251        0.001384        -0.000368
        163.439000        10468.967467        10.373710        12.222424        0.001396        -0.000371
        163.983000        10512.562163        10.394127        12.224427        0.001409        -0.000374
        164.528000        10559.704011        10.379616        12.221774        0.001422        -0.000378
        165.074000        10618.533911        10.390823        12.222614        0.001435        -0.000381
        165.617000        10659.335009        10.391435        12.223357        0.001448        -0.000384
        166.163000        10708.951658        10.407675        12.221845        0.001462        -0.000388
        166.710000        10753.699227        10.413130        12.223508        0.001474        -0.000390
        167.256000        10796.572587        10.403827        12.223873        0.001488        -0.000395
        167.801000        10850.911801        10.414856        12.224010        0.001503        -0.000399
        168.347000        10902.586225        10.423322        12.223307        0.001518        -0.000404
        168.895000        10936.460483        10.424365        12.225024        0.001532        -0.000407
        169.441000        10985.012837        10.426594        12.225030        0.001546        -0.000411
        169.989000        11048.969464        10.425934        12.226177        0.001560        -0.000415
        170.535000        11089.833372        10.434345        12.225323        0.001576        -0.000421
        171.078000        11131.619896        10.432474        12.226436        0.001591        -0.000426
        171.621000        11170.116891        10.448295        12.226471        0.001607        -0.000430
        172.166000        11215.883701        10.451152        12.227542        0.001623        -0.000435
        172.713000        11259.919605        10.462165        12.223336        0.001640        -0.000439
        173.253000        11315.081625        10.462259        12.225680        0.001655        -0.000445
        173.798000        11362.328165        10.480923        12.227068        0.001673        -0.000450
        174.344000        11389.985659        10.468068        12.228976        0.001690        -0.000455
        174.887000        11440.642494        10.472808        12.224941        0.001707        -0.000462
        175.433000        11506.012855        10.479117        12.227792        0.001724        -0.000467
        175.980000        11534.702458        10.480650        12.229478        0.001742        -0.000473
        176.527000        11589.590766        10.481374        12.226767        0.001759        -0.000479
        177.071000        11621.234990        10.505291        12.228135        0.001778        -0.000485
        177.616000        11664.623630        10.499546        12.227914        0.001797        -0.000493
        178.160000        11710.813929        10.501427        12.228766        0.001817        -0.000498
        178.704000        11756.835163        10.505603        12.230726        0.001835        -0.000505
        179.249000        11793.713982        10.505504        12.232585        0.001855        -0.000511
        179.798000        11843.077887        10.515802        12.230895        0.001877        -0.000518
        180.343000        11879.913235        10.516047        12.228758        0.001896        -0.000524
        180.889000        11924.077977        10.527946        12.233103        0.001917        -0.000531
        181.435000        11955.995936        10.523080        12.233220        0.001937        -0.000538
        181.978000        11995.924381        10.539336        12.234113        0.001958        -0.000545
        182.522000        12029.843756        10.535861        12.235347        0.001981        -0.000553
        183.067000        12065.872426        10.543954        12.235584        0.002003        -0.000560
        183.611000        12119.904163        10.548987        12.231393        0.002025        -0.000569
        184.155000        12147.701759        10.552285        12.236248        0.002049        -0.000577
        184.701000        12190.864999        10.551196        12.236817        0.002072        -0.000585
        185.245000        12234.363152        10.558004        12.235062        0.002096        -0.000594
        185.793000        12266.852723        10.558503        12.235931        0.002120        -0.000603
        186.338000        12308.553954        10.570122        12.237586        0.002145        -0.000612
        186.879000        12342.352578        10.575216        12.238490        0.002171        -0.000621
        187.426000        12383.403311        10.577619        12.237336        0.002196        -0.000631
        187.968000        12411.518114        10.581541        12.240307        0.002223        -0.000640
        188.512000        12446.179781        10.576495        12.238339        0.002248        -0.000649
        189.056000        12471.826227        10.585663        12.241144        0.002274        -0.000658
        189.601000        12520.328734        10.594986        12.239964        0.002301        -0.000668
        190.141000        12550.388599        10.607229        12.241597        0.002330        -0.000679
        190.688000        12585.481791        10.601735        12.241529        0.002358        -0.000690
        191.230000        12614.422605        10.609438        12.242549        0.002420        -0.000716
        191.776000        13045.237330        10.637577        12.243378        0.002567        -0.000773
        192.322000        13254.495600        10.652596        12.241335        0.002739        -0.000838
        192.868000        13372.759502        10.666785        12.241373        0.002920        -0.000908
        193.417000        13509.169811        10.705989        12.243583        0.003114        -0.000982
        193.962000        13613.386793        10.725964        12.245001        0.003315        -0.001061
        194.509000        13734.703584        10.744610        12.245063        0.003531        -0.001146
        195.056000        13835.312242        10.761938        12.245077        0.003759        -0.001235
        195.604000        13932.995267        10.794801        12.249346        0.003999        -0.001331
        196.149000        14028.530360        10.798771        12.251954        0.004247        -0.001429
        196.694000        14102.468504        10.838867        12.254003        0.004500        -0.001529
        197.239000        14185.737481        10.868584        12.254846        0.004765        -0.001634
        197.783000        14272.758119        10.884763        12.258457        0.005039        -0.001742
        198.331000        14328.701227        10.921116        12.261597        0.005318        -0.001852
        198.876000        14409.732114        10.926192        12.264705        0.005604        -0.001965
        199.422000        14469.992048        10.952946        12.268515        0.005897        -0.002080
        199.966000        14533.815253        10.978154        12.271636        0.006190        -0.002197
        200.513000        14592.970631        10.999411        12.275694        0.006493        -0.002317
        201.056000        14655.331826        11.023209        12.278216        0.006797        -0.002436
        201.598000        14717.427350        11.044965        12.280073        0.007108        -0.002560
        202.143000        14767.227755        11.059946        12.284398        0.007422        -0.002683
        202.690000        14831.725635        11.090954        12.288053        0.007739        -0.002805
        203.232000        14870.407941        11.112511        12.293556        0.008055        -0.002927
        203.777000        14934.000924        11.132731        12.295093        0.008375        -0.003051
        204.326000        14969.276151        11.157649        12.298340        0.008694        -0.003176
        204.871000        15042.427008        11.180771        12.304571        0.009024        -0.003302
        205.417000        15073.256609        11.209654        12.307704        0.009343        -0.003425
        205.959000        15115.833887        11.226766        12.312659        0.009671        -0.003552
        206.505000        15176.588186        11.242507        12.316328        0.009999        -0.003680
        207.052000        15216.043382        11.261030        12.322319        0.010327        -0.003807
        207.598000        15257.999147        11.296875        12.326728        0.010654        -0.003933
        208.143000        15302.569805        11.312136        12.331494        0.010972        -0.004059
        208.688000        15343.264825        11.335370        12.334298        0.011290        -0.004185
        209.231000        15387.331509        11.356337        12.340456        0.011614        -0.004311
        209.771000        15428.008822        11.393429        12.344575        0.011931        -0.004437
        210.316000        15469.810023        11.398874        12.349286        0.012255        -0.004565
        210.862000        15509.730568        11.431505        12.353339        0.012578        -0.004691
        211.405000        15546.678769        11.450003        12.359242        0.012898        -0.004815
        211.953000        15588.748873        11.481204        12.364973        0.013222        -0.004942
        212.499000        15633.338869        11.498217        12.367343        0.013536        -0.005069
        213.042000        15682.490435        11.510009        12.373743        0.013851        -0.005196
        213.591000        15702.536855        11.533501        12.379571        0.014162        -0.005322
        214.132000        15745.840345        11.566767        12.383538        0.014475        -0.005449
        214.680000        15771.312987        11.587576        12.386858        0.014789        -0.005575
        215.225000        15815.477913        11.605117        12.392397        0.015107        -0.005702
        215.770000        15855.098985        11.637987        12.395781        0.015423        -0.005829
        216.319000        15890.456370        11.650462        12.402007        0.015739        -0.005954
        216.862000        15921.603201        11.686835        12.402405        0.016051        -0.006078
        217.406000        15959.709123        11.707831        12.408675        0.016366        -0.006204
        217.950000        15997.847249        11.722509        12.410749        0.016682        -0.006328
        218.495000        16028.382226        11.751505        12.414527        0.016998        -0.006455
        219.039000        16070.339643        11.770462        12.419561        0.017315        -0.006580
        219.584000        16095.520857        11.801406        12.423737        0.017630        -0.006705
        220.125000        16133.510857        11.823172        12.431313        0.017943        -0.006828
        220.671000        16169.175793        11.835267        12.432613        0.018261        -0.006955
        221.215000        16198.020113        11.857587        12.438138        0.018569        -0.007077
        221.754000        16233.102176        11.893004        12.440879        0.018882        -0.007201
        222.299000        16264.730458        11.902971        12.446599        0.019196        -0.007325
        222.842000        16299.566170        11.935837        12.451178        0.019511        -0.007451
        223.387000        16336.694745        11.949861        12.455852        0.019827        -0.007576
        223.935000        16364.793570        11.980493        12.461914        0.020142        -0.007702
        224.482000        16388.108623        11.998375        12.465801        0.020454        -0.007824
        225.026000        16424.393481        12.011716        12.470316        0.020765        -0.007947
        225.571000        16453.955940        12.044299        12.475752        0.021074        -0.008071
        226.114000        16487.962430        12.071688        12.480954        0.021385        -0.008196
        226.660000        16520.479528        12.070164        12.485177        0.021694        -0.008320
        227.203000        16545.288810        12.108827        12.491994        0.022002        -0.008442
        227.749000        16588.155993        12.134106        12.495372        0.022310        -0.008566
        228.295000        16614.142303        12.158877        12.499825        0.022621        -0.008690
        228.841000        16642.664608        12.189328        12.505134        0.022932        -0.008814
        229.390000        16667.618808        12.197659        12.510537        0.023241        -0.008938
        229.937000        16709.500582        12.238695        12.515933        0.023548        -0.009061
        230.484000        16729.633976        12.245709        12.523186        0.023855        -0.009184
        231.030000        16763.980221        12.265983        12.524377        0.024160        -0.009307
        231.577000        16782.421344        12.305290        12.529460        0.024466        -0.009430
        232.121000        16826.273955        12.316793        12.534560        0.024761        -0.009550
        232.666000        16857.805651        12.332238        12.538773        0.025053        -0.009671
        233.206000        16873.569084        12.368591        12.541327        0.025347        -0.009794
        233.750000        16911.993863        12.383649        12.546429        0.025644        -0.009918
        234.299000        16937.580864        12.403006        12.551564        0.025939        -0.010041
        234.843000        16972.825586        12.440301        12.553968        0.026227        -0.010162
        235.390000        16996.919974        12.452583        12.559195        0.026513        -0.010283
        235.933000        17028.987860        12.481575        12.562909        0.026793        -0.010404
        236.477000        17050.908536        12.501608        12.567033        0.027075        -0.010526
        237.023000        17077.880277        12.516821        12.569761        0.027346        -0.010647
        237.567000        17105.328625        12.541115        12.574078        0.027609        -0.010766
        238.107000        17142.993420        12.575581        12.579954        0.027813        -0.010889
        238.651000        17155.433496        12.588984        12.582847        0.027996        -0.011009
        239.195000        17195.919290        12.612273        12.585974        0.028199        -0.011130
        239.741000        17220.258429        12.643439        12.590088        0.028417        -0.011252
        240.286000        17252.859285        12.650060        12.594628        0.028624        -0.011373
        240.830000        17267.286297        12.675745        12.600196        0.028829        -0.011497
        241.378000        17300.123848        12.707642        12.602104        0.026922        -0.011617
        241.929000        17323.564522        12.730168        12.606579        0.027052        -0.011737
        242.475000        17355.093018        12.742788        12.611116        0.027224        -0.011858
        243.023000        17383.190270        12.772640        12.615281        0.027415        -0.011979
        243.565000        17403.222242        12.791009        12.619765        0.027613        -0.012098
        244.105000        17438.107922        12.826464        12.624026        0.027862        -0.012256
        244.649000        17701.742332        12.867049        12.628741        0.028319        -0.012498
        245.192000        17755.867809        12.904298        12.632648        0.028784        -0.012741
        245.738000        17789.180380        12.952773        12.639654        0.029234        -0.012981
        246.282000        17840.025970        12.997603        12.644694        0.029677        -0.013220
        246.824000        17884.289236        13.039495        12.652936        0.030118        -0.013457
        247.365000        17934.336193        13.079536        12.659310        0.030556        -0.013694
        247.911000        17990.976756        13.130288        12.667758        0.030995        -0.013928
        248.454000        18036.278583        13.177008        12.675912        0.031436        -0.014163
        248.999000        18089.230279        13.224491        12.681189        0.031876        -0.014394
        249.543000        18142.534604        13.269987        12.692049        0.032320        -0.014623
        250.085000        18186.025011        13.325183        12.698782        0.032760        -0.014863
        250.747000        18245.146850        13.374183        12.708032        0.033299        -0.015129
        251.294000        18290.067085        13.413570        12.716541        0.033741        -0.015355
        251.840000        18349.541558        13.473354        12.723161        0.034180        -0.015577
        252.388000        18382.280939        13.508018        12.731228        0.034613        -0.015800
        252.933000        18442.913125        13.553791        12.737419        0.035049        -0.016025
        253.481000        18490.874965        13.609572        12.746289        0.035479        -0.016249
        254.027000        18534.569884        13.632746        12.750006        0.035902        -0.016470
        254.571000        18581.948852        13.679842        12.761224        0.036313        -0.016688
        255.115000        18623.568280        13.740113        12.768153        0.036723        -0.016908
        255.662000        18681.445502        13.787664        12.773624        0.037125        -0.017126
        256.205000        18728.755243        13.822440        12.782688        0.037523        -0.017343
        256.751000        18770.514764        13.866042        12.789845        0.037922        -0.017557
        257.294000        18821.173645        13.921183        12.799649        0.038324        -0.017770
        257.837000        18865.462735        13.973809        12.807451        0.038718        -0.017981
        258.382000        18907.066077        14.022561        12.814297        0.039113        -0.018187
        258.930000        18953.342111        14.047051        12.823185        0.039504        -0.018388
        259.475000        18994.227328        14.086967        12.830842        0.039902        -0.018580
        260.020000        19040.042861        14.146725        12.839066        0.040295        -0.018755
        260.565000        19085.470349        14.188740        12.849484        0.040689        -0.018931
        261.112000        19130.459876        14.236819        12.857520        0.041078        -0.019098
        261.659000        19182.600133        14.286518        12.863881        0.041469        -0.019258
        262.202000        19220.640208        14.324958        12.873072        0.041858        -0.019415
        262.747000        19277.256723        14.377913        12.881653        0.042244        -0.019560
        263.292000        19314.200282        14.409227        12.888818        0.042616        -0.019704
        263.836000        19354.236965        14.473926        12.894709        0.042978        -0.019840
        264.384000        19399.001086        14.505529        12.903863        0.043339        -0.019965
        264.930000        19445.158003        14.550002        12.911153        0.043693        -0.020076
        265.475000        19490.538822        14.603619        12.921224        0.044050        -0.020176
        266.018000        19527.778663        14.633233        12.928484        0.044398        -0.020212
        266.563000        19571.615343        14.697413        12.934585        0.044708        -0.020156
        267.104000        19611.204416        14.734756        12.944476        0.044997        -0.020171
        267.648000        19646.402577        14.781505        12.953008        0.045301        -0.020067
        268.191000        19684.048189        14.831867        12.960277        0.045632        -0.020164
        268.734000        19735.678068        14.868256        12.968213        0.045968        -0.020272
        269.280000        19774.201223        14.915977        12.977663        0.046301        -0.020385
        269.823000        19817.084702        14.971556        12.985408        0.046632        -0.020498
        270.367000        19857.311414        15.008387        12.992783        0.046939        -0.020609
        270.911000        19894.221193        15.048965        13.002879        0.047240        -0.020716
        271.453000        19932.897323        15.100155        13.008816        0.047531        -0.020816
        271.999000        19978.408600        15.130497        13.016438        0.047818        -0.020896
        272.543000        20018.702950        15.187731        13.023322        0.048087        -0.020951
        273.089000        20065.437958        15.240369        13.031835        0.048359        -0.020988
        273.634000        20097.969711        15.270118        13.037381        0.048613        -0.020982
        274.180000        20141.349143        15.320638        13.045168        0.048886        -0.020978
        274.724000        20180.740201        15.361224        13.051991        0.049153        -0.020934
        275.272000        20224.518958        15.410903        13.061245        0.049405        -0.020763
        275.817000        20261.048758        15.468118        13.069807        0.049665        -0.019939
        276.360000        20298.646102        15.511981        13.076063        0.049920        -0.016738
        276.905000        20334.200145        15.553194        13.082690        0.050175        -0.009186
        277.447000        20367.422674        15.603711        13.090684        0.050429        0.046542
        277.990000        20408.544673        15.647385        13.100844        0.050692        0.046542
        278.536000        20450.834044        15.704277        13.107271        0.050952        0.046542
        279.080000        20487.571568        15.727479        13.116814        0.051217        0.046542
        279.622000        20527.964170        15.788130        13.122021        0.051479        0.046542
        280.170000        20569.706093        15.822816        13.130572        0.051723        0.046542
        280.713000        20606.736675        15.879483        13.138192        0.051938        0.046542
        281.258000        20626.950692        15.914726        13.146073        0.052175        0.046542
        281.803000        20677.706328        15.959247        13.155423        0.052417        0.046542
        282.355000        20721.507662        15.999140        13.162490        0.052483        0.046542
        282.900000        20750.862592        16.051447        13.169184        0.052368        0.046542
        283.454000        20788.849623        16.099780        13.178207        0.052491        0.046542
        284.001000        20833.547828        16.147382        13.185936        0.052652        0.046542
        284.548000        20871.586390        16.194946        13.192237        0.052822        0.046542
        285.090000        20903.828356        16.226463        13.198395        0.052998        0.046542
        285.636000        20928.433306        16.281848        13.207129        0.053178        0.046542
        286.184000        20974.694991        16.325190        13.214275        0.053354        0.046542
        286.728000        21012.472715        16.372986        13.222229        0.053531        0.046542
        287.276000        21042.437913        16.422327        13.230804        0.053710        0.046542
        287.819000        21073.246839        16.453229        13.240022        0.053890        0.046542
        288.365000        21122.540480        16.508669        13.245821        0.054055        0.046542
        288.909000        21154.233394        16.558159        13.253977        0.054210        0.046542
        289.451000        21181.229450        16.592049        13.260859        0.054380        0.046542
        289.995000        21220.485319        16.647753        13.268874        0.054552        0.046542
        290.542000        21258.873311        16.696773        13.274998        0.054725        0.046542
        291.085000        21291.686906        16.730979        13.284033        0.054896        0.046542
        291.629000        21319.562119        16.783199        13.291043        0.054910        0.046542
        292.175000        21355.893934        16.826312        13.297298        0.054910        0.046542
        292.717000        21393.228885        16.871618        13.306155        0.054910        0.046542
        293.263000        21427.196978        16.915040        13.314377        0.054910        0.046542
        293.807000        21460.719057        16.971505        13.320325        0.054910        0.046542
        294.355000        21500.472485        17.004168        13.330706        0.054910        0.046542
        294.899000        21535.688464        17.066162        13.337823        0.054910        0.046542
        295.445000        21568.725888        17.102770        13.344332        0.054910        0.046542
        295.989000        21594.958744        17.136796        13.353750        0.054910        0.046542
        296.534000        21635.760402        17.184247        13.359961        0.054910        0.046542
        297.076000        21657.512163        17.236409        13.366984        0.054910        0.046542
        297.623000        21690.670355        17.277159        13.376919        0.054910        0.046542
        298.170000        21731.943799        17.329775        13.383844        0.054910        0.046542
        298.714000        21757.318442        17.368698        13.391362        0.054910        0.046542
        299.262000        21794.600282        17.417093        13.401368        0.054910        0.046542
        299.805000        21833.225006        17.465996        13.407191        0.054910        0.046542
        300.352000        21854.952620        17.510681        13.413374        0.054910        0.046542
        300.895000        21892.392264        17.563790        13.421631        0.054910        0.046542
        301.441000        21916.622084        17.614065        13.431277        0.054910        0.046542
        301.981000        21959.233593        17.646545        13.439292        0.054910        0.046542
        302.528000        21991.860448        17.700269        13.445095        0.054910        0.046542
        303.071000        22019.920864        17.736178        13.454180        0.054910        0.046542
        303.618000        22050.977808        17.765502        13.460981        0.054910        0.046542
        304.166000        22081.081531        17.826791        13.468520        0.054910        0.046542
        304.707000        22119.806104        17.866098        13.477946        0.054910        0.046542
        305.254000        22144.417543        17.918025        13.484381        0.054910        0.046542
        305.799000        22177.147459        17.961347        13.492912        0.054910        0.046542
        306.343000        22209.251020        18.011255        13.502947        0.054910        0.046542
        306.886000        22248.027127        18.052356        13.506835        0.054910        0.046542
        307.428000        22279.235438        18.099404        13.517250        0.054910        0.046542
        307.972000        22303.851715        18.138936        13.522500        0.054910        0.046542
        308.519000        22319.220787        18.192831        13.529456        0.054910        0.046542
        309.061000        22365.097750        18.235989        13.537037        0.054910        0.046542
        309.604000        22395.918016        18.288190        13.545670        0.054910        0.046542
        310.147000        22412.077685        18.318110        13.552505        0.054910        0.046542
        310.686000        22443.376174        18.372208        13.562554        0.054910        0.046542
        311.227000        22480.017211        18.412700        13.570677        0.054910        0.046542
        311.777000        22511.000109        18.460357        13.579564        0.054910        0.046542
        312.320000        22546.066404        18.518000        13.588128        0.054910        0.046542
        312.864000        22559.707770        18.557980        13.594710        0.054910        0.046542
        313.410000        22596.780338        18.599531        13.604538        0.054910        0.046542
        313.957000        22618.760779        18.647900        13.611713        0.054910        0.046542
        314.504000        22662.494629        18.696697        13.620415        0.054910        0.046542
        315.046000        22681.610579        18.724114        13.630012        0.054910        0.046542
        315.591000        22708.010943        18.790513        13.634494        0.054910        0.046542
        316.136000        22743.470131        18.824742        13.646260        0.054910        0.046542
        316.681000        22767.081681        18.872402        13.651865        0.054910        0.046542
        317.225000        22793.502980        18.923463        13.660750        0.054910        0.046542
        317.769000        22822.959454        18.965778        13.668058        0.054910        0.046542
        318.314000        22855.038900        19.008553        13.673697        0.054910        0.046542
        318.857000        22887.118346        19.049180        13.680698        0.054910        0.046542
        319.403000        22915.982283        19.097719        13.689357        0.054910        0.046542
        319.947000        22940.730621        19.152780        13.698382        0.054910        0.046542
        320.492000        22966.554555        19.198640        13.707563        0.054910        0.046542
        321.035000        22993.547475        19.225217        13.713022        0.054910        0.046542
        321.580000        23019.951074        19.271277        13.722192        0.054910        0.046542
        322.124000        23056.638842        19.321623        13.730377        0.054910        0.046542
        322.669000        23078.884980        19.378996        13.740384        0.054910        0.046542
        323.214000        23107.758586        19.416238        13.746640        0.054910        0.046542
        323.756000        23135.501854        19.466890        13.754292        0.054910        0.046542
        324.303000        23160.874948        19.513694        13.763630        0.054910        0.046542
        324.848000        23181.237189        19.557374        13.768197        0.054910        0.046542
        325.393000        23203.304601        19.598655        13.776344        0.054910        0.046542
        325.938000        23242.937387        19.655728        13.783083        0.054910        -0.013836
        326.483000        23263.562088        19.684250        13.792608        0.054910        -0.018226
        327.029000        23294.968506        19.735382        13.801069        0.054910        -0.020191
        327.575000        23321.050084        19.786018        13.805637        0.054910        -0.021890
        328.123000        23343.313945        19.832116        13.813369        0.054910        -0.022832
        328.669000        23364.698650        19.868905        13.823525        0.054910        -0.023274
        329.216000        23391.823623        19.914578        13.829195        0.054910        -0.023608
        329.761000        23425.084968        19.969484        13.836971        0.054910        -0.023937
        330.309000        23447.769088        20.014826        13.846472        0.054910        -0.024106
        330.853000        23471.905585        20.050368        13.853596        0.054910        -0.024316
        331.398000        23493.132498        20.103841        13.862356        0.054910        -0.024421
        331.945000        23526.208680        20.151279        13.867781        0.054910        -0.024570
        332.493000        23551.602724        20.186474        13.876902        0.054910        -0.024754
        333.038000        23582.700005        20.222985        13.884603        0.054910        -0.024869
        333.586000        23597.400891        20.297287        13.894671        0.054910        -0.024955
        334.133000        23622.379514        20.340104        13.901003        0.054910        -0.025043
        334.679000        23655.724602        20.372465        13.912704        0.054910        -0.025127
        335.226000        23674.640923        20.415472        13.918078        0.054910        -0.025222
        335.766000        23701.567862        20.467946        13.926929        0.054910        -0.025279
        336.311000        23723.005717        20.505318        13.934624        0.054910        -0.025332
        336.857000        23755.102925        20.562269        13.941193        0.054910        -0.025369
        337.402000        23776.907904        20.601994        13.948677        0.054910        -0.025413
        337.941000        23801.862383        20.644905        13.956983        0.054910        -0.025461
        338.489000        23821.878459        20.685809        13.963306        0.054910        -0.025513
        339.029000        23846.184040        20.746991        13.970428        0.054910        -0.025563
        339.567000        23868.412497        20.790265        13.978189        0.054910        -0.025598
        340.113000        23884.150343        20.829401        13.985423        0.054910        -0.025645
        340.657000        23927.269206        20.876827        13.992537        0.054910        -0.025683
        341.203000        23932.529647        20.912173        14.000304        0.054910        -0.025709
        341.745000        23959.657868        20.967906        14.006522        0.054910        -0.025722
        342.288000        23987.518721        21.013828        14.016508        0.054910        -0.025714
        342.827000        24011.315495        21.056838        14.024609        0.054910        -0.025699
        343.373000        24030.289795        21.089008        14.033694        0.054910        -0.025678
        343.912000        24047.671634        21.145528        14.039277        0.054910        -0.025679
        344.460000        24083.290315        21.182194        14.048228        0.054910        -0.025647
        345.003000        24100.590036        21.233207        14.056494        0.054910        -0.025619
        345.550000        24127.475129        21.278246        14.066297        0.054910        -0.025551
        346.094000        24154.814295        21.329622        14.073485        0.054910        -0.025496
        346.634000        24175.735303        21.377914        14.084280        0.054910        -0.025433
        347.173000        24196.624108        21.406449        14.091469        0.054910        -0.025378
        347.718000        24213.782137        21.475421        14.100007        0.054910        -0.025379
        348.261000        24238.477399        21.511456        14.107951        0.054910        -0.025394
        348.806000        24263.291813        21.558263        14.115906        0.054910        -0.025417
        349.352000        24285.478425        21.594040        14.123202        0.054910        -0.025439
        349.897000        24312.361917        21.638716        14.131907        0.054910        -0.025460
        350.443000        24328.069183        21.689644        14.137587        0.054910        -0.025482
        350.990000        24351.857920        21.723567        14.144966        0.054910        -0.025503
        351.535000        24375.453437        21.779513        14.151805        0.054910        -0.025528
        352.082000        24405.124150        21.826146        14.160425        0.054910        -0.025558
        352.628000        24415.767413        21.880666        14.166007        0.054910        -0.025591
        353.175000        24443.968038        21.926832        14.173512        0.054910        -0.025623
        353.722000        24469.197890        21.958491        14.183801        0.054910        -0.025651
        354.265000        24479.831492        22.001610        14.188908        0.054910        -0.025687
        354.807000        24498.871828        22.060696        14.196385        0.054910        -0.025723
        355.354000        24523.808628        22.088822        14.204752        0.054910        -0.025776
        355.897000        24548.096529        22.150143        14.211766        0.054910        -0.025820
        356.441000        24575.274699        22.182185        14.219785        0.054910        -0.025854
        356.987000        24600.787946        22.240530        14.227395        0.054910        -0.025895
        357.532000        24603.766774        22.283550        14.237762        0.054910        -0.025935
        358.079000        24638.739810        22.330006        14.244776        0.054910        -0.025974
        358.623000        24665.813324        22.363185        14.252509        0.054910        -0.026015
        359.171000        24675.202264        22.428682        14.259554        0.054910        -0.026055
        359.712000        24696.118461        22.460331        14.268438        0.054910        -0.026087
        360.260000        24727.302759        22.514606        14.275968        0.054910        -0.026120
        360.802000        24739.280865        22.554709        14.284457        0.054910        -0.026150
        361.346000        24765.120988        22.607225        14.291471        0.054910        -0.026179
        361.890000        24778.063592        22.641795        14.298086        0.054910        -0.026211
        362.432000        24798.480638        22.691465        14.307392        0.054910        -0.026236
        362.977000        24821.804057        22.746979        14.315997        0.054910        -0.026263
        363.522000        24844.151708        22.784927        14.323363        0.054910        -0.026289
        364.067000        24863.782991        22.829068        14.332718        0.054910        -0.026313
        364.609000        24867.083854        22.857919        14.339569        0.054910        -0.026338
        365.155000        24902.401488        22.925133        14.345646        0.054910        -0.026364
        365.699000        24923.791086        22.965425        14.355377        0.054910        -0.026387
        366.244000        24943.543135        23.014135        14.363310        0.054910        -0.026416
        366.784000        24963.047218        23.056546        14.370350        0.054910        -0.026438
        367.328000        24995.749929        23.109836        14.375563        0.054910        -0.026462
        367.872000        24997.817398        23.150762        14.383106        0.054910        -0.026484
        368.418000        25018.587083        23.187406        14.390885        0.054910        -0.026507
        368.960000        25040.026601        23.243246        14.398932        0.054910        -0.026528
        369.504000        25061.111882        23.287277        14.405182        0.054910        -0.026548
        370.048000        25075.287890        23.316846        14.415031        0.054910        -0.026569
        370.594000        25097.542163        23.379835        14.421169        0.054910        -0.026595
        371.140000        25128.259531        23.423476        14.429952        0.054910        -0.026616
        371.684000        25133.194728        23.466561        14.437133        0.054910        -0.026641
        372.227000        25153.727722        23.515409        14.443564        0.054910        -0.026658
        372.768000        25173.842070        23.544708        14.451961        0.054910        -0.026681
        373.312000        25202.912232        23.601027        14.460552        0.054910        -0.026701
        373.856000        25215.313826        23.652819        14.463492        0.054910        -0.026719
        374.397000        25227.956949        23.691263        14.476476        0.054910        -0.026739
        374.939000        25251.127418        23.742295        14.481940        0.054910        -0.026765
        375.483000        25264.619106        23.792950        14.490587        0.054910        -0.026793
        376.028000        25283.904216        23.834280        14.497309        0.054910        -0.026818
        376.573000        25299.207356        23.858905        14.506827        0.054910        -0.026835
        377.124000        25324.654622        23.904389        14.512544        0.054910        -0.026850
        377.664000        25336.177062        23.965700        14.522665        0.054910        -0.026868
        378.207000        25357.937021        24.014652        14.528542        0.054910        -0.026888
        378.750000        25383.574290        24.057156        14.537996        0.054910        -0.026908
        379.288000        25397.883952        24.109592        14.545767        0.054910        -0.026932
        379.830000        25407.103838        24.140465        14.553992        0.054910        -0.026955
        380.373000        25428.916935        24.183096        14.562330        0.054910        -0.026969
        380.915000        25461.793575        24.240401        14.570473        0.054910        -0.026989
        381.459000        25477.053244        24.277099        14.578210        0.054910        -0.027007
        382.003000        25490.123071        24.337432        14.587560        0.054910        -0.027023
        382.546000        25514.547883        24.369628        14.597267        0.054910        -0.027039
        383.092000        25530.208488        24.411276        14.603061        0.054910        -0.027055
        383.636000        25536.098525        24.464955        14.613705        0.054910        -0.027072
        384.181000        25555.749158        24.511250        14.623096        0.054910        -0.027087
        384.720000        25577.431836        24.547456        14.629600        0.054910        -0.027100
        385.267000        25606.862702        24.605882        14.638426        0.054910        -0.027114
        385.806000        25618.156502        24.652753        14.644810        0.054910        -0.027130
        386.348000        25632.966936        24.693316        14.652362        0.054910        -0.027147
        386.893000        25647.407029        24.732729        14.662448        0.054910        -0.027166
        387.439000        25666.176898        24.774075        14.669458        0.054910        -0.027177
        387.982000        25694.346995        24.833583        14.675401        0.054910        -0.027192
        388.528000        25708.956160        24.873321        14.686057        0.054910        -0.027206
        389.072000        25720.675051        24.919896        14.693632        0.054910        -0.027221
        389.617000        25743.715118        24.961944        14.700874        0.054910        -0.027235
        390.162000        25760.043957        25.017333        14.709771        0.054910        -0.027253
        390.709000        25778.817049        25.050550        14.716595        0.054910        -0.027260
        391.256000        25789.036863        25.093412        14.727712        0.054910        -0.027261
        391.798000        25810.109295        25.152956        14.731984        0.054910        -0.027269
        392.342000        25818.411384        25.187213        14.743532        0.054910        -0.027279
        392.889000        25833.630810        25.233325        14.751147        0.054910        -0.027292
        393.434000        25859.807516        25.279359        14.757950        0.054910        -0.027304
        393.979000        25867.446213        25.331077        14.766686        0.054910        -0.027319
        394.523000        25882.321061        25.369263        14.775176        0.054910        -0.027333
        395.071000        25911.293042        25.429599        14.780693        0.054910        -0.027346
        395.612000        25928.478501        25.464732        14.789849        0.054910        -0.027361
        396.160000        25951.813242        25.499437        14.797149        0.054910        -0.027374
        396.706000        25956.379715        25.552920        14.803407        0.054910        -0.027387
        397.249000        25974.014417        25.596326        14.810019        0.054910        -0.027401
        397.796000        25985.077971        25.640351        14.818523        0.054910        -0.027414
        398.338000        26006.279224        25.687280        14.824709        0.054910        -0.027426
        398.882000        26022.202305        25.748115        14.832337        0.054910        -0.027440
        399.426000        26035.072483        25.770026        14.842964        0.054910        -0.027447
        399.968000        26049.024703        25.813703        14.850275        0.054910        -0.027462
        400.512000        26073.911663        25.865373        14.855556        0.054910        -0.027477
        401.055000        26084.893101        25.918137        14.864623        0.054910        -0.027488
        401.598000        26106.324613        25.960545        14.870581        0.054910        -0.027498
        402.143000        26118.085379        26.003018        14.878985        0.054910        -0.027511
        402.688000        26130.527251        26.053058        14.887321        0.054910        -0.027521
        403.235000        26145.988213        26.093366        14.894133        0.054910        -0.027531
        403.774000        26161.148073        26.148292        14.904095        0.054910        -0.027543
        404.319000        26181.632803        26.187953        14.911207        0.054910        -0.027559
        404.862000        26191.871948        26.228700        14.920348        0.054910        -0.027573
        405.405000        26206.212226        26.289286        14.929264        0.054910        -0.027578
        405.951000        26221.940481        26.311986        14.937591        0.054910        -0.027590
        406.493000        26248.299158        26.354990        14.946117        0.054910        -0.027602
        407.038000        26261.195104        26.408643        14.957814        0.054910        -0.027618
        407.582000        26267.677696        26.466190        14.965462        0.054910        -0.027634
        408.125000        26287.505476        26.501349        14.974838        0.054910        -0.027650
        408.670000        26305.278666        26.557334        14.982769        0.054910        -0.027662
        409.211000        26328.346134        26.592635        14.991650        0.054910        -0.027669
        409.755000        26331.777432        26.650337        15.003218        0.054910        -0.027678
        410.302000        26348.735871        26.690162        15.007664        0.054910        -0.027690
        410.846000        26365.502698        26.748076        15.014721        0.054910        -0.027706
        411.389000        26393.138256        26.781821        15.026829        0.054910        -0.027717
        411.933000        26394.846660        26.833713        15.034304        0.054910        -0.027729
        412.473000        26418.163710        26.869881        15.042058        0.054910        -0.027736
        413.021000        26434.953083        26.918327        15.049803        0.054910        -0.027744
        413.567000        26440.474398        26.966512        15.055528        0.054910        -0.027752
        414.111000        26458.777343        27.005958        15.065837        0.054910        -0.027766
        414.651000        26474.811541        27.046314        15.072822        0.054910        -0.027779
        415.196000        26479.954464        27.096709        15.080353        0.054910        -0.027795
        415.741000        26499.645387        27.141207        15.089131        0.054910        -0.027804
        416.288000        26515.173992        27.175130        15.095676        0.054910        -0.027814
        416.832000        26522.806257        27.233011        15.105593        0.054910        -0.027826
        417.379000        26542.039889        27.270888        15.111733        0.054910        -0.027839
        417.924000        26557.813241        27.326242        15.120765        0.054910        -0.027852
        418.465000        26569.403336        27.369179        15.128015        0.054910        -0.027860
        419.010000        26579.389692        27.418401        15.137160        0.054910        -0.027868
        419.547000        26600.756821        27.459498        15.146352        0.054910        -0.027871
        420.092000        26617.819929        27.517399        15.156275        0.054910        -0.027883
        420.635000        26624.315408        27.552011        15.165310        0.054910        -0.027891
        421.183000        26654.949141        27.593047        15.171752        0.054910        -0.027896
        421.728000        26661.293263        27.644099        15.182760        0.054910        -0.027902
        422.271000        26678.655869        27.689444        15.190869        0.054910        -0.027909
        422.812000        26685.883982        27.733601        15.199843        0.054910        -0.027920
        423.359000        26700.443259        27.773072        15.205827        0.054910        -0.027926
        423.904000        26711.353862        27.814727        15.215078        0.054910        -0.027934
        424.446000        26719.544865        27.863740        15.223725        0.054910        -0.027943
        424.992000        26735.582293        27.918150        15.231494        0.054910        -0.027951
        425.533000        26751.914383        27.956078        15.239615        0.054910        -0.027956
        426.079000        26760.965224        27.992094        15.244231        0.054910        -0.027966
        426.617000        26777.054179        28.050011        15.252725        0.054910        -0.027974
        427.161000        26798.637080        28.084137        15.262348        0.054910        -0.027985
        427.706000        26818.933446        28.149374        15.269193        0.054910        -0.027999
        428.249000        26826.253341        28.190088        15.277361        0.054910        -0.028008
        428.790000        26833.193234        28.230242        15.285315        0.054910        -0.028019
        429.337000        26845.429021        28.283776        15.294594        0.054910        -0.028026
        429.883000        26867.723626        28.324558        15.302915        0.054910        -0.028036
        430.427000        26878.769488        28.375326        15.310451        0.054910        -0.028047
        430.972000        26891.506043        28.413365        15.319922        0.054910        -0.028058
        431.511000        26908.583654        28.465440        15.327677        0.054910        -0.028067
        432.052000        26925.616180        28.499485        15.335899        0.054910        -0.028076
        432.591000        26934.612281        28.546601        15.343738        0.054910        -0.028088
        433.133000        26949.572501        28.602255        15.353122        0.054910        -0.028095
        433.674000        26963.626189        28.636522        15.360488        0.054910        -0.028105
        434.220000        26978.227338        28.678512        15.369406        0.054910        -0.028114
        434.756000        26985.300880        28.736442        15.375729        0.054910        -0.028122
        435.297000        27003.024177        28.769208        15.384493        0.054910        -0.028136
        435.842000        27009.128386        28.812843        15.392577        0.054910        -0.028143
        436.380000        27029.295946        28.861911        15.400204        0.054910        -0.028158
        436.923000        27037.324327        28.905021        15.411438        0.054910        -0.028172
        437.465000        27057.285784        28.953664        15.417533        0.054910        -0.028180
        438.011000        27073.450426        29.003015        15.427398        0.054910        -0.028185
        438.555000        27077.487160        29.043829        15.435397        0.054910        -0.028189
        439.099000        27091.911193        29.097599        15.443140        0.054910        -0.028203
        439.641000        27108.639403        29.133589        15.449534        0.054910        -0.028215
        440.186000        27128.346452        29.178631        15.458226        0.054910        -0.028211
        440.727000        27134.233288        29.239878        15.466854        0.054910        -0.028225
        441.271000        27146.406285        29.265602        15.473471        0.054910        -0.028232
        441.814000        27166.282408        29.315352        15.480959        0.054910        -0.028237
        442.359000        27172.175685        29.371064        15.489211        0.054910        -0.028240
        442.900000        27181.656453        29.414786        15.497881        0.054910        -0.028249
        443.443000        27201.679104        29.450402        15.504494        0.054910        -0.028254
        443.990000        27213.066333        29.499148        15.512042        0.054910        -0.028258
        444.530000        27217.656971        29.533696        15.520051        0.054910        -0.028262
        445.074000        27241.511863        29.594192        15.528464        0.054910        -0.028276
        445.617000        27248.203792        29.635625        15.533757        0.054910        -0.028287
        446.163000        27259.776193        29.690856        15.544016        0.054910        -0.028296
        446.705000        27282.867861        29.739048        15.551103        0.054910        -0.028295
        447.251000        27287.769264        29.773418        15.559690        0.054910        -0.028303
        447.794000        27301.518637        29.816702        15.569937        0.054910        -0.028310
        448.338000        27316.932941        29.858673        15.577129        0.054910        -0.028315
        448.879000        27322.665202        29.903866        15.582676        0.054910        -0.028317
        449.417000        27341.264454        29.955981        15.593491        0.054910        -0.028322
        449.965000        27358.040977        30.008092        15.598105        0.054910        -0.028326
        450.509000        27363.306285        30.049160        15.610397        0.054910        -0.028327
        451.055000        27377.358374        30.091340        15.616898        0.054910        -0.028334
        451.600000        27390.169010        30.128341        15.625852        0.054910        -0.028349
        452.142000        27397.287642        30.185476        15.634617        0.054910        -0.028358
        452.690000        27413.268735        30.234157        15.644435        0.054910        -0.028364
        453.236000        27423.317905        30.273396        15.651873        0.054910        -0.028369
        453.776000        27440.992914        30.313879        15.661623        0.054910        -0.028371
        454.320000        27446.752549        30.362432        15.669693        0.054910        -0.028374
        454.861000        27461.759481        30.411651        15.680336        0.054910        -0.028385
        455.402000        27474.603934        30.464525        15.689115        0.054910        -0.028388
        455.947000        27490.538335        30.485508        15.698990        0.054910        -0.028391
        456.493000        27500.439369        30.534196        15.706250        0.054910        -0.028398
        457.037000        27508.295466        30.593566        15.712990        0.054910        -0.028403
        457.579000        27522.009422        30.639758        15.725078        0.054910        -0.028409
        458.123000        27530.688325        30.682214        15.731425        0.054910        -0.028419
        458.663000        27542.635906        30.720655        15.739371        0.054910        -0.028429
        459.207000        27557.715300        30.771417        15.748304        0.054910        -0.028434
        459.753000        27562.761625        30.813126        15.756626        0.054910        -0.028443
        460.297000        27577.744408        30.875246        15.764847        0.054910        -0.028456
        460.843000        27587.159166        30.907224        15.770823        0.054910        -0.028464
        461.388000        27607.106157        30.960613        15.782939        0.054910        -0.028470
        461.933000        27612.843250        31.002232        15.786895        0.054910        -0.028475
        462.478000        27630.550469        31.035978        15.797473        0.054910        -0.028486
        463.024000        27646.304535        31.082776        15.802973        0.054910        -0.028495
        463.565000        27652.796807        31.146357        15.814054        0.054910        -0.028505
        464.114000        27665.650927        31.176921        15.822303        0.054910        -0.028515
        464.651000        27671.753534        31.229702        15.829077        0.054910        -0.028522
        465.195000        27684.142310        31.267876        15.836621        0.054910        -0.028531
        465.739000        27695.292854        31.308416        15.844495        0.054910        -0.028539
        466.281000        27704.422612        31.361490        15.852530        0.054910        -0.028547
        466.821000        27719.843371        31.399045        15.861975        0.054910        -0.028551
        467.367000        27729.135759        31.458840        15.867371        0.054910        -0.028560
        467.909000        27740.144607        31.482667        15.875892        0.054910        -0.028572
        468.455000        27763.126804        31.551012        15.883564        0.054910        -0.028581
        469.000000        27767.186085        31.581334        15.892564        0.054910        -0.028587
        469.540000        27785.822390        31.643489        15.899034        0.054910        -0.028594
        470.085000        27793.047299        31.680491        15.907161        0.054910        -0.028600
        470.631000        27795.187238        31.720104        15.916523        0.054910        -0.028610
        471.177000        27812.470987        31.778105        15.921463        0.054910        -0.028625
        471.720000        27824.949936        31.814378        15.931235        0.054910        -0.028625
        472.263000        27845.481433        31.858606        15.940363        0.054910        -0.028633
        472.801000        27850.205723        31.908698        15.949913        0.054910        -0.028643
        473.343000        27864.409185        31.946704        15.955970        0.054910        -0.028651
        473.890000        27872.302322        31.992664        15.964723        0.054910        -0.028664
        474.436000        27883.895672        32.045229        15.975466        0.054910        -0.028670
        474.980000        27893.822477        32.093370        15.982640        0.054910        -0.028682
        475.523000        27899.706102        32.135717        15.990587        0.054910        -0.028682
        476.066000        27916.527731        32.172866        16.000341        0.054910        -0.028685
        476.609000        27925.130961        32.227325        16.007217        0.054910        -0.028692
        477.154000        27936.308883        32.260465        16.015258        0.054910        -0.028692
        477.694000        27937.505253        32.297830        16.022633        0.054910        -0.028701
        478.239000        27961.073570        32.359332        16.032219        0.054910        -0.028708
        478.784000        27960.985009        32.412029        16.039656        0.054910        -0.028715
        479.329000        27985.075027        32.440146        16.046893        0.054910        -0.028719
        479.873000        27990.229239        32.488206        16.056083        0.054910        -0.028725
        480.415000        28000.420117        32.544670        16.065362        0.054910        -0.028731
        480.958000        28016.005125        32.592569        16.072172        0.054910        -0.028737
        481.501000        28015.691137        32.648001        16.081376        0.054910        -0.028745
        482.047000        28033.585155        32.675344        16.088838        0.054910        -0.028744
        482.587000        28042.048303        32.731870        16.098995        0.054910        -0.028748
        483.133000        28053.776912        32.779611        16.106635        0.054910        -0.028745
        483.680000        28062.898626        32.819427        16.116208        0.054910        -0.028751
        484.223000        28068.506912        32.847798        16.124305        0.054910        -0.028747
        484.766000        28077.722018        32.904991        16.135264        0.054910        -0.028749
        485.310000        28098.437086        32.943709        16.144458        0.054910        -0.028754
        485.855000        28102.430354        32.994467        16.149654        0.054910        -0.028758
        486.394000        28118.570879        33.032902        16.157551        0.054910        -0.028762
        486.941000        28123.609159        33.089547        16.167383        0.054910        -0.028764
        487.484000        28137.244232        33.136841        16.175310        0.054910        -0.028773
        488.028000        28138.005852        33.183480        16.182830        0.054910        -0.028775
        488.570000        28159.323134        33.219638        16.191995        0.054910        -0.028774
        489.111000        28170.352924        33.273620        16.199496        0.054910        -0.028783
        489.654000        28176.619778        33.311043        16.207574        0.054910        -0.028790
        490.203000        28189.535099        33.356015        16.216734        0.054910        -0.028796
        490.747000        28198.977244        33.405531        16.224493        0.054910        -0.028798
        491.292000        28218.452473        33.450042        16.234421        0.054910        -0.028805
        491.837000        28222.647016        33.495145        16.242989        0.054910        -0.028804
        492.378000        28228.540306        33.537744        16.251188        0.054910        -0.028803
        492.925000        28225.614593        33.583289        16.259629        0.054910        -0.028811
        493.465000        28246.601791        33.640407        16.267519        0.054910        -0.028816
        494.010000        28260.689332        33.681476        16.276574        0.054910        -0.028817
        494.553000        28272.395404        33.723057        16.283720        0.054910        -0.028814
        495.098000        28273.063633        33.760341        16.291188        0.054910        -0.028817
        495.639000        28289.196114        33.813908        16.302598        0.054910        -0.028819
        496.184000        28304.310956        33.855270        16.308461        0.054910        -0.028822
        496.729000        28304.507399        33.899562        16.318548        0.054910        -0.028822
        497.273000        28312.308765        33.949000        16.326565        0.054910        -0.028824
        497.815000        28324.840865        33.992223        16.336400        0.054910        -0.028826
        498.358000        28329.186764        34.028616        16.346653        0.054910        -0.028825
        498.904000        28340.863854        34.077794        16.353345        0.054910        -0.028829
        499.448000        28357.026932        34.128626        16.362605        0.054910        -0.028828
        499.994000        28362.305132        34.168932        16.370076        0.054910        -0.028839
        500.537000        28368.720125        34.215275        16.379486        0.054910        -0.028842
        501.082000        28384.593369        34.253748        16.389791        0.054910        -0.028849
        501.624000        28393.599157        34.310204        16.398880        0.054910        -0.028847
        502.168000        28402.476129        34.353929        16.408760        0.054910        -0.028840
        502.707000        28408.556204        34.399390        16.418067        0.054910        -0.028840
        503.254000        28420.933729        34.447115        16.426890        0.054910        -0.028844
        503.797000        28433.589816        34.488422        16.435379        0.054910        -0.028847
        504.338000        28444.144608        34.531616        16.444866        0.054910        -0.028844
        504.880000        28452.583609        34.567842        16.454203        0.054910        -0.028843
        505.423000        28454.852367        34.627688        16.461504        0.054910        -0.028848
        505.970000        28477.320950        34.665855        16.472358        0.054910        -0.028854
        506.509000        28479.972932        34.720124        16.478437        0.054910        -0.028852
        507.056000        28490.722557        34.782034        16.488267        0.054910        -0.028851
        507.595000        28500.266150        34.811040        16.497418        0.054910        -0.028855
        508.139000        28510.075424        34.854063        16.505682        0.054910        -0.028856
        508.681000        28526.499359        34.893197        16.513487        0.054910        -0.028860
        509.227000        28527.444540        34.946531        16.521924        0.054910        -0.028866
        509.766000        28541.990993        34.993909        16.531464        0.054910        -0.028859
        510.310000        28547.715218        35.024904        16.538871        0.054910        -0.028861
        510.857000        28559.149176        35.083453        16.547472        0.054910        -0.028856
        511.401000        28568.196831        35.135577        16.556364        0.054910        -0.028862
        511.946000        28563.313127        35.168775        16.565787        0.054910        -0.028867
        512.489000        28587.230886        35.211683        16.573613        0.054910        -0.028856
        513.030000        28591.327208        35.273613        16.581551        0.054910        -0.028846
        513.574000        28598.386282        35.304901        16.587849        0.054910        -0.028845
        514.122000        28600.466647        35.360165        16.598769        0.054910        -0.028847
        514.663000        28613.670204        35.396017        16.607561        0.054910        -0.028843
        515.209000        28629.409811        35.432339        16.613622        0.054910        -0.028841
        515.754000        28635.146918        35.486340        16.623657        0.054910        -0.028839
        516.296000        28642.418536        35.542171        16.630556        0.054910        -0.028826
        516.846000        28652.245527        35.570323        16.641783        0.054910        -0.028824
        517.387000        28669.682274        35.605849        16.648779        0.054910        -0.028815
        517.930000        28676.945842        35.669956        16.657727        0.054910        -0.028806
        518.474000        28676.432191        35.708858        16.665675        0.054910        -0.028804
        519.022000        28692.068748        35.776323        16.675396        0.054910        -0.028792
        519.563000        28698.480526        35.815540        16.683991        0.054910        -0.028785
        520.108000        28697.271272        35.841841        16.689653        0.054910        -0.028780
        520.648000        28704.560604        35.900605        16.701079        0.054910        -0.028776
        521.195000        28717.446957        35.934257        16.708057        0.054910        -0.028771
        521.740000        28732.365371        35.987947        16.719221        0.054910        -0.028764
        522.287000        28740.802769        36.040190        16.725402        0.054910        -0.028751
        522.833000        28741.474219        36.086627        16.735029        0.054910        -0.028746
        523.373000        28751.347906        36.133305        16.741752        0.054910        -0.028728
        523.922000        28762.733562        36.173005        16.752795        0.054910        -0.028719
        524.462000        28776.405690        36.210532        16.760633        0.054910        -0.028713
        525.008000        28778.825806        36.267122        16.770016        0.054910        -0.028710
        525.553000        28780.154213        36.312700        16.778488        0.054910        -0.028708
        526.099000        28791.163087        36.354567        16.788974        0.054910        -0.028700
        526.640000        28802.532642        36.401690        16.797787        0.054910        -0.028693
        527.186000        28815.439930        36.445473        16.807917        0.054910        -0.028686
        527.725000        28818.425224        36.475786        16.816356        0.054910        -0.028665
        528.267000        28833.306606        36.535484        16.824623        0.054910        -0.028664
        528.808000        28840.016269        36.578308        16.834640        0.054910        -0.028645
        529.351000        28846.819327        36.619193        16.843866        0.054910        -0.028631
        529.897000        28850.529206        36.680202        16.854959        0.054910        -0.028620
        530.439000        28861.666897        36.722279        16.861528        0.054910        -0.028615
        530.985000        28867.088409        36.765180        16.872076        0.054910        -0.028609
        531.524000        28873.551715        36.797580        16.883339        0.054910        -0.028600
        532.068000        28878.445084        36.863677        16.893280        0.054910        -0.028596
        532.614000        28893.014093        36.895941        16.902675        0.054910        -0.028581
        533.159000        28909.764909        36.931655        16.912150        0.054910        -0.028581
        533.701000        28908.626503        36.995452        16.922616        0.054910        -0.028557
        534.245000        28917.611370        37.031324        16.930920        0.054910        -0.028534
        534.788000        28927.489892        37.071813        16.938584        0.054910        -0.028530
        535.335000        28931.037143        37.123080        16.947890        0.054910        -0.028527
        535.878000        28933.592517        37.173504        16.957935        0.054910        -0.028523
        536.418000        28947.918385        37.212415        16.965342        0.054910        -0.028521
        536.967000        28961.125174        37.263061        16.975167        0.054910        -0.028503
        537.511000        28972.568803        37.305724        16.983205        0.054910        -0.028498
        538.054000        28970.258179        37.350841        16.993071        0.054910        -0.028477
        538.596000        28979.344488        37.394727        17.001578        0.054910        -0.028468
        539.144000        28987.108829        37.446230        17.011554        0.054910        -0.028466
        539.690000        28991.552959        37.484020        17.020412        0.054910        -0.028456
        540.233000        28997.075914        37.532460        17.027064        0.054910        -0.028457
        540.773000        29016.799148        37.572743        17.034184        0.054910        -0.028446
        541.314000        29020.595979        37.621228        17.043675        0.054910        -0.028426
        541.862000        29019.301386        37.672744        17.054778        0.054910        -0.028412
        542.405000        29034.691596        37.702100        17.061580        0.054910        -0.028400
        542.951000        29032.408345        37.755422        17.073390        0.054910        -0.028384
        543.500000        29044.182064        37.802603        17.080072        0.054910        -0.028380
        544.044000        29054.889837        37.856747        17.088744        0.054910        -0.028369
        544.586000        29065.679732        37.901287        17.097769        0.054910        -0.028352
        545.133000        29067.816456        37.938424        17.106790        0.054910        -0.028338
        545.674000        29078.996017        37.985408        17.115128        0.054910        -0.028325
        546.218000        29084.509312        38.028029        17.126970        0.054910        -0.028322
        546.761000        29087.159688        38.074656        17.135926        0.054910        -0.028317
        547.304000        29086.338489        38.115319        17.144022        0.054910        -0.028301
        547.846000        29103.387199        38.166361        17.154540        0.054910        -0.028287
        548.391000        29111.431718        38.210570        17.162851        0.054910        -0.028270
        548.936000        29113.275386        38.266127        17.173223        0.054910        -0.028261
        549.477000        29121.640332        38.304085        17.182404        0.054910        -0.028258
        550.021000        29125.514454        38.347637        17.191417        0.054910        -0.028253
        550.561000        29139.265492        38.396157        17.201239        0.054910        -0.028255
        551.102000        29141.289504        38.443461        17.211990        0.054910        -0.028243
        551.645000        29156.159625        38.485141        17.217156        0.054910        -0.028223
        552.190000        29150.763872        38.531092        17.230505        0.054910        -0.028205
        552.734000        29163.077010        38.590153        17.241248        0.054910        -0.028200
        553.280000        29173.356475        38.616605        17.250457        0.054910        -0.028189
        553.823000        29188.017274        38.667672        17.258663        0.054910        -0.028185
        554.367000        29187.157430        38.713111        17.268908        0.054910        -0.028174
        554.914000        29200.604144        38.761110        17.278472        0.054910        -0.028164
        555.453000        29193.728624        38.816419        17.289080        0.054910        -0.028167
        555.998000        29205.692353        38.856313        17.297615        0.054910        -0.028154
        556.540000        29211.624299        38.887762        17.310328        0.054910        -0.028139
        557.086000        29224.998554        38.937877        17.318925        0.054910        -0.028123
        557.630000        29229.676163        38.984504        17.328666        0.054910        -0.028118
        558.180000        29232.785444        39.020208        17.338969        0.054910        -0.028116
        558.722000        29245.919782        39.071144        17.349885        0.054910        -0.028107
        559.270000        29252.119023        39.122675        17.358005        0.054910        -0.028103
        559.816000        29261.554748        39.163148        17.368308        0.054910        -0.028094
        560.355000        29264.327500        39.205589        17.378407        0.054910        -0.028082
        560.902000        29272.104727        39.258367        17.389921        0.054910        -0.028072
        561.442000        29276.358857        39.296773        17.399192        0.054910        -0.028066
        561.987000        29279.424662        39.352146        17.409109        0.054910        -0.028048
        562.529000        29295.901761        39.400457        17.421893        0.054910        -0.028033
        563.077000        29300.687254        39.435858        17.429880        0.054910        -0.028029
        563.622000        29308.250327        39.486543        17.439420        0.054910        -0.028030
        564.164000        29302.720927        39.527441        17.448491        0.054910        -0.028025
        564.705000        29314.346516        39.558611        17.459716        0.054910        -0.028021
        565.249000        29321.465177        39.618931        17.470821        0.054910        -0.028007
        565.791000        29337.467270        39.650799        17.479374        0.054910        -0.028001
        566.330000        29334.369260        39.710642        17.489190        0.054910        -0.028001
        566.876000        29340.698927        39.759144        17.500034        0.054910        -0.027985
        567.419000        29351.168399        39.801005        17.511988        0.054910        -0.027974
        567.966000        29350.292453        39.850556        17.521095        0.054910        -0.027967
        568.509000        29357.493237        39.899872        17.532006        0.054910        -0.027956
        569.052000        29368.065761        39.939318        17.542478        0.054910        -0.027945
        569.596000        29377.598102        39.981536        17.555688        0.054910        -0.027935
        570.142000        29378.327519        40.038936        17.564485        0.054910        -0.027925
        570.681000        29386.022630        40.072804        17.574260        0.054910        -0.027911
        571.229000        29387.941980        40.105664        17.583825        0.054910        -0.027892
        571.773000        29394.785299        40.157949        17.594184        0.054910        -0.027883
        572.312000        29404.336963        40.215741        17.604610        0.054910        -0.027886
        572.860000        29411.289776        40.255844        17.617165        0.054910        -0.027881
        573.402000        29421.184409        40.298797        17.626904        0.054910        -0.027866
        573.949000        29425.939310        40.341785        17.635355        0.054910        -0.027851
        574.491000        29433.766457        40.392450        17.644122        0.054910        -0.027838
        575.035000        29429.505887        40.444500        17.655813        0.054910        -0.027829
        575.576000        29445.297048        40.489173        17.667991        0.054910        -0.027827
        576.120000        29444.430765        40.519122        17.673723        0.054910        -0.027819
        576.657000        29450.562379        40.573803        17.685969        0.054910        -0.027811
        577.204000        29454.270654        40.618115        17.696637        0.054910        -0.027794
        577.749000        29455.858304        40.657908        17.707085        0.054910        -0.027777
        578.283000        29464.761062        40.713994        17.717771        0.054910        -0.027769
        578.824000        29482.302505        40.755388        17.728161        0.054910        -0.027771
        579.365000        29475.652407        40.794444        17.739171        0.054910        -0.027751
        579.912000        29485.532552        40.835787        17.750905        0.054910        -0.027740
        580.459000        29499.864881        40.895942        17.762122        0.054910        -0.027742
        581.005000        29486.981726        40.941024        17.774823        0.054910        -0.027745
        581.548000        29503.854940        40.971987        17.782611        0.054910        -0.027738
        582.095000        29504.935379        41.025854        17.795362        0.054910        -0.027728
        582.638000        29509.886723        41.067911        17.805734        0.054910        -0.027714
        583.180000        29514.797814        41.135261        17.817263        0.054910        -0.027699
        583.724000        29528.466743        41.163690        17.825655        0.054910        -0.027691
        584.265000        29533.781991        41.209738        17.838296        0.054910        -0.027685
        584.804000        29530.632452        41.256085        17.848381        0.054910        -0.027673
        585.348000        29545.256228        41.297907        17.860177        0.054910        -0.027665
        585.896000        29538.842829        41.344818        17.869739        0.054910        -0.027659
        586.438000        29547.304394        41.381868        17.883018        0.054910        -0.027644
        586.988000        29556.844790        41.435013        17.894483        0.054910        -0.027640
        587.530000        29561.266381        41.484000        17.904338        0.054910        -0.027630
        588.076000        29561.685031        41.530476        17.914469        0.054910        -0.027616
        588.616000        29571.681113        41.573381        17.924764        0.054910        -0.027604
        589.164000        29579.239360        41.612588        17.936996        0.054910        -0.027598
        589.703000        29583.933074        41.661570        17.946818        0.054910        -0.027587
        590.250000        29588.436786        41.700407        17.957882        0.054910        -0.027586
        590.793000        29593.452538        41.747369        17.967981        0.054910        -0.027583
        591.335000        29597.060982        41.795194        17.976180        0.054910        -0.027572
        591.879000        29601.347317        41.849895        17.987921        0.054910        -0.027569
        592.415000        29609.694560        41.882806        17.998954        0.054910        -0.027564
        592.979000        29614.059795        41.939964        18.011390        0.054910        -0.027555
        593.523000        29620.376584        41.983989        18.021289        0.054910        -0.027546
        594.068000        29625.925312        42.029158        18.031535        0.054910        -0.027540
        594.604000        29626.912359        42.075340        18.042339        0.054910        -0.027541
        595.153000        29627.519403        42.118828        18.053498        0.054910        -0.027529
        595.699000        29640.083743        42.164856        18.064547        0.054910        -0.027518
        596.244000        29647.447159        42.206385        18.073232        0.054910        -0.027497
        596.789000        29640.181965        42.249209        18.083945        0.054910        -0.027485
        597.331000        29647.730554        42.304019        18.095806        0.054910        -0.027466
        597.877000        29664.106224        42.341488        18.106057        0.054910        -0.027452
        598.420000        29663.692405        42.397583        18.116849        0.054910        -0.027443
        598.968000        29664.511993        42.440124        18.127178        0.054910        -0.027432
        599.511000        29669.113927        42.469725        18.140254        0.054910        -0.027419
        600.058000        29672.865679        42.522693        18.152103        0.054910        -0.027397
        600.596000        29682.378704        42.572595        18.161196        0.054910        -0.027369
        601.141000        29682.882694        42.609362        18.172486        0.054910        -0.027358
        601.684000        29680.921479        42.654959        18.183094        0.054910        -0.027354
        602.228000        29690.070600        42.709218        18.196409        0.054910        -0.027339
        602.768000        29695.287627        42.749540        18.208680        0.054910        -0.027325
        603.316000        29699.697949        42.797739        18.217739        0.054910        -0.027311
        603.861000        29706.681359        42.844195        18.231366        0.054910        -0.027295
        604.402000        29708.162738        42.891267        18.243994        0.054910        -0.027287
        604.950000        29708.632914        42.938586        18.256626        0.054910        -0.027280
        605.491000        29707.573407        42.980776        18.267589        0.054910        -0.027263
        606.038000        29718.524337        43.028933        18.279616        0.054910        -0.027254
        606.579000        29723.675346        43.071680        18.292365        0.054910        -0.027240
        607.127000        29724.325866        43.110002        18.303431        0.054910        -0.027229
        607.672000        29732.173951        43.163733        18.315373        0.054910        -0.027215
        608.217000        29737.576151        43.204551        18.327244        0.054910        -0.027194
        608.760000        29732.141746        43.255593        18.340240        0.054910        -0.027180
        609.302000        29745.556273        43.298591        18.352418        0.054910        -0.027167
        609.846000        29750.121174        43.341937        18.361758        0.054910        -0.027166
        610.388000        29739.205667        43.390251        18.372613        0.054910        -0.027160
        610.938000        29752.642738        43.430924        18.384893        0.054910        -0.027146
        611.483000        29765.783531        43.472454        18.397133        0.054910        -0.027128
        612.028000        29767.004058        43.517880        18.409368        0.054910        -0.027115
        612.571000        29763.951130        43.570201        18.420964        0.054910        -0.027108
        613.116000        29767.722205        43.614332        18.431244        0.054910        -0.027089
        613.659000        29769.375874        43.650068        18.442499        0.054910        -0.027073
        614.209000        29780.379942        43.707239        18.454274        0.054910        -0.027065
        614.752000        29777.162774        43.750472        18.465337        0.054910        -0.027044
        615.289000        29782.742097        43.793167        18.478307        0.054910        -0.027031
        615.831000        29790.859085        43.840223        18.488755        0.054910        -0.027027
        616.373000        29789.044397        43.892914        18.500523        0.054910        -0.027026
        616.918000        29791.271295        43.920486        18.513152        0.054910        -0.027017
        617.457000        29790.569251        43.975390        18.525125        0.054910        -0.026997
        618.005000        29801.454164        44.024639        18.538135        0.054910        -0.026987
        618.548000        29799.988887        44.060127        18.550478        0.054910        -0.026975
        619.095000        29806.405511        44.119912        18.560632        0.054910        -0.026970
        619.636000        29809.176655        44.166549        18.576207        0.054910        -0.026970
        620.179000        29808.329693        44.200456        18.586107        0.054910        -0.026957
        620.721000        29818.097132        44.251479        18.599932        0.054910        -0.026945
        621.264000        29814.628774        44.301462        18.611866        0.054910        -0.026931
        621.807000        29822.187026        44.342692        18.624810        0.054910        -0.026930
        622.349000        29826.903284        44.396877        18.639353        0.054910        -0.026922
        622.895000        29837.359888        44.436282        18.652657        0.054910        -0.026904
        623.437000        29829.135015        44.471335        18.664083        0.054910        -0.026901
        623.984000        29835.876898        44.518201        18.680077        0.054910        -0.026877
        624.523000        29832.825580        44.559424        18.691065        0.054910        -0.026853
        625.070000        29834.239330        44.611845        18.704996        0.054910        -0.026845
        625.612000        29838.406513        44.659712        18.718787        0.054910        -0.026840
        626.157000        29845.882646        44.702913        18.732116        0.054910        -0.026827
        626.699000        29841.262998        44.752754        18.743788        0.054910        -0.026812
        627.243000        29846.956646        44.794280        18.755241        0.054910        -0.026800
        627.787000        29848.930745        44.832058        18.769881        0.054910        -0.026786
        628.324000        29844.357793        44.880122        18.783122        0.054910        -0.026781
        628.872000        29854.168708        44.931286        18.794497        0.054910        -0.026770
        629.415000        29855.204063        44.976667        18.809818        0.054910        -0.026768
        629.960000        29863.499783        45.016229        18.821148        0.054910        -0.026770
        630.503000        29869.093599        45.066077        18.836299        0.054910        -0.026761
        631.051000        29862.087643        45.107494        18.847843        0.054910        -0.026750
        631.592000        29866.291861        45.161695        18.861672        0.054910        -0.026747
        632.136000        29858.166820        45.190569        18.876233        0.054910        -0.026729
        632.678000        29869.773101        45.246036        18.888417        0.054910        -0.026727
        633.223000        29865.742785        45.295807        18.903294        0.054910        -0.026711
        633.766000        29871.983899        45.331791        18.917460        0.054910        -0.026699
        634.305000        29866.053553        45.382234        18.930243        0.054910        -0.026693
        634.851000        29868.069517        45.438638        18.944781        0.054910        -0.026681
        635.392000        29869.604032        45.474964        18.958867        0.054910        -0.026688
        635.937000        29869.880985        45.519617        18.972088        0.054910        -0.026665
        636.475000        29877.635682        45.553617        18.987226        0.054910        -0.026652
        637.022000        29871.586181        45.612546        19.003128        0.054910        -0.026651
        637.562000        29871.091851        45.650389        19.014894        0.054910        -0.026636
        638.104000        29874.267155        45.697766        19.028312        0.054910        -0.026625
        638.648000        29875.941757        45.739953        19.042937        0.054910        -0.026599
        639.194000        29873.486211        45.783608        19.057265        0.054910        -0.026577
        639.732000        29873.175445        45.844395        19.071034        0.054910        -0.026566
        640.275000        29873.901640        45.887976        19.087066        0.054910        -0.026567
        640.818000        29866.563984        45.924746        19.101334        0.054910        -0.026544
        641.355000        29877.774158        45.969908        19.116619        0.054910        -0.026510
        641.900000        29878.015688        46.017675        19.131603        0.054910        -0.026486
        642.443000        29869.021140        46.066769        19.147438        0.054910        -0.026463
        642.992000        29868.571897        46.101282        19.162664        0.054910        -0.026460
        643.532000        29868.715203        46.152270        19.178661        0.054910        -0.026447
        644.078000        29861.140850        46.199399        19.195302        0.054910        -0.026432
        644.618000        29861.651281        46.244111        19.211076        0.054910        -0.026418
        645.164000        29871.591011        46.298837        19.227129        0.054910        -0.026394
        645.705000        29867.190350        46.341365        19.243022        0.054910        -0.026371
        646.249000        29861.464498        46.384466        19.258259        0.054910        -0.026350
        646.790000        29848.962948        46.427464        19.275390        0.054910        -0.026332
        647.333000        29846.301297        46.473209        19.291684        0.054910        -0.026333
        647.881000        29849.333293        46.520738        19.307800        0.054910        -0.026318
        648.419000        29843.448032        46.559411        19.324662        0.054910        -0.026304
        648.963000        29832.886767        46.604953        19.341534        0.054910        -0.026291
        649.517000        29832.944735        46.652386        19.357055        0.054910        -0.026307
        650.062000        29823.890611        46.696521        19.374582        0.054910        -0.026296
        650.603000        29808.183166        46.738205        19.390391        0.054910        -0.026277
        651.148000        29819.454526        46.786700        19.408230        0.054910        -0.026271
        651.691000        29808.320033        46.827914        19.423364        0.054910        -0.026277
        652.236000        29794.775078        46.877997        19.439158        0.054910        -0.026244
        652.780000        29792.894371        46.929651        19.457666        0.054910        -0.026241
        653.323000        29781.437840        46.969187        19.475996        0.054910        -0.026234
        653.866000        29769.129514        47.018610        19.494743        0.054910        -0.026229
        654.406000        29760.903034        47.063193        19.511597        0.054910        -0.026203
        654.952000        29751.861793        47.107801        19.528397        0.054910        -0.026190
        655.493000        29732.115984        47.157249        19.546302        0.054910        -0.026182
        656.041000        29722.884742        47.195581        19.564137        0.054910        -0.026166
        656.578000        29705.116251        47.236995        19.582380        0.054910        -0.026157
        657.125000        29693.886758        47.281400        19.600083        0.054910        -0.026149
        657.668000        29668.672734        47.346870        19.616349        0.054910        -0.026141
        658.211000        29659.703954        47.382468        19.635235        0.054910        -0.026126
        658.755000        29641.244695        47.424651        19.654684        0.054910        -0.026110
        659.298000        29625.658018        47.457424        19.671134        0.054910        -0.026093
        659.844000        29602.714370        47.519268        19.691209        0.054910        -0.026085
        660.382000        29579.284445        47.557931        19.708306        0.054910        -0.026086
        660.927000        29557.637005        47.596708        19.728017        0.054910        -0.026055
        661.470000        29530.865932        47.644449        19.745016        0.054910        -0.026028
        662.012000        29503.842058        47.691701        19.762364        0.054910        -0.025995
        662.553000        29478.959744        47.740728        19.782200        0.054910        -0.025988
        663.097000        29450.056779        47.780052        19.799044        0.054910        -0.025983
        663.637000        29409.228728        47.825810        19.816633        0.054910        -0.025967
        664.182000        29375.688411        47.876849        19.835224        0.054910        -0.025935
        664.727000        29345.181703        47.926462        19.851474        0.054910        -0.025901
        665.271000        29307.165056        47.967183        19.871359        0.054910        -0.025891
        665.815000        29249.639326        48.009901        19.887641        0.054910        -0.025876
        666.358000        29211.220141        48.055842        19.905462        0.054910        -0.025859
        666.907000        29165.633994        48.106582        19.924293        0.054910        -0.025837
        667.447000        29109.201602        48.142570        19.940525        0.054910        -0.025823
        667.996000        29044.402661        48.208896        19.958561        0.054910        -0.025799
        668.538000        28991.248633        48.234240        19.977318        0.054910        -0.025769
        669.084000        28930.362473        48.281438        19.996152        0.054910        -0.025757
        669.623000        28855.094098        48.325837        20.013419        0.054910        -0.025744
        670.165000        28781.743471        48.381091        20.028648        0.054910        -0.025723
        670.711000        28702.602613        48.425973        20.026064        0.054910        -0.025700
        671.257000        28608.633530        48.456077        20.027232        0.054910        -0.025678
        671.802000        28519.036130        48.516011        20.026646        0.054910        -0.025670
        672.345000        28414.048559        48.553532        20.024722        0.054910        -0.025653
        672.889000        28302.742633        48.604114        20.025053        0.054910        -0.025636
        673.430000        28178.914296        48.655037        20.026617        0.054910        -0.025638
        673.977000        28049.773985        48.694097        20.026058        0.054910        -0.025625
        674.516000        27898.532276        48.737446        20.025627        0.054910        -0.025617
        675.063000        27750.623703        48.786679        20.025275        0.054910        -0.025605
        675.606000        27586.497380        48.827854        20.026965        0.054910        -0.025606
        676.150000        27395.442369        48.876307        20.026789        0.054910        -0.025570
        676.697000        27189.248475        48.928609        20.027428        0.044207        -0.025544
        677.242000        26974.176117        48.968248        20.025555        0.040534        -0.025542
        677.786000        26744.953560        49.003170        20.025202        0.038939        -0.025545
        678.328000        26470.467269        49.053855        20.027782        0.038034        -0.025535
        678.877000        26183.471631        49.105822        20.026552        0.037467        -0.025541
        679.419000        25866.589596        49.150594        20.024648        0.037022        -0.025546
        679.971000        25510.226161        49.194591        20.026804        0.036633        -0.025527
        680.510000        25105.333814        49.236056        20.027080        0.036260        -0.025180
        681.057000        109.501036        49.280256        20.026544        0.054910        -0.025255
        681.598000        109.014774        49.317364        20.026353        0.042613        -0.025276
        682.141000        96.826022        49.365601        20.026850        0.039440        -0.025285
        682.678000        105.767124        49.422363        20.027816        0.038004        -0.025273
        683.222000        92.879572        49.468038        20.026198        0.037116        -0.025274
        683.762000        92.106705        49.509026        20.027644        0.036570        -0.025280
        684.300000        94.710300        49.550318        20.026407        0.036148        -0.025289
        684.846000        93.291768        49.600075        20.026965        0.035756        -0.025279
        685.388000        97.270421        49.642413        20.028399        0.035491        -0.025276
        685.931000        90.535210        49.687798        20.026293        0.035283        -0.025290
        686.472000        91.934420        49.733469        20.026980        0.035080        -0.025257